
         1   # Prop. dir.: 1 forw; 2 backw
         2   # Sector #
     0.140   # Range in km 
 Depth (m)         Re(u)         Im(u)         Re(w)         Im(w)
     0.010  0.143466E-12 -0.470928E-14   0.00000       0.00000    
     3.040  0.868154E-10 -0.294496E-11   0.00000       0.00000    
     6.070  0.170826E-09 -0.636552E-11   0.00000       0.00000    
     9.101  0.249868E-09 -0.106740E-10   0.00000       0.00000    
    12.131  0.321612E-09 -0.161197E-10   0.00000       0.00000    
    15.161  0.383910E-09 -0.227386E-10   0.00000       0.00000    
    18.191  0.434871E-09 -0.303130E-10   0.00000       0.00000    
    21.221  0.472924E-09 -0.383542E-10   0.00000       0.00000    
    24.252  0.496893E-09 -0.461112E-10   0.00000       0.00000    
    27.282  0.506063E-09 -0.526048E-10   0.00000       0.00000    
    30.312  0.500242E-09 -0.566871E-10   0.00000       0.00000    
    33.342  0.479795E-09 -0.571213E-10   0.00000       0.00000    
    36.372  0.445673E-09 -0.526780E-10   0.00000       0.00000    
    39.403  0.399402E-09 -0.422393E-10   0.00000       0.00000    
    42.433  0.343047E-09 -0.249048E-10   0.00000       0.00000    
    45.463  0.279143E-09 -0.898685E-13   0.00000       0.00000    
    48.493  0.210589E-09  0.323920E-10   0.00000       0.00000    
    51.523  0.140509E-09  0.722697E-10   0.00000       0.00000    
    54.554  0.721039E-10  0.118784E-09   0.00000       0.00000    
    57.584  0.846533E-11  0.170690E-09   0.00000       0.00000    
    60.614 -0.475926E-10  0.226302E-09   0.00000       0.00000    
    63.644 -0.937084E-10  0.283561E-09   0.00000       0.00000    
    66.674 -0.128121E-09  0.340144E-09   0.00000       0.00000    
    69.705 -0.149785E-09  0.393601E-09   0.00000       0.00000    
    72.735 -0.158442E-09  0.441501E-09   0.00000       0.00000    
    75.765 -0.154645E-09  0.481590E-09   0.00000       0.00000    
    78.795 -0.139716E-09  0.511958E-09   0.00000       0.00000    
    81.825 -0.115661E-09  0.531163E-09   0.00000       0.00000    
    84.856 -0.850282E-10  0.538364E-09   0.00000       0.00000    
    87.886 -0.507198E-10  0.533388E-09   0.00000       0.00000    
    90.916 -0.157816E-10  0.516781E-09   0.00000       0.00000    
    93.946  0.168271E-10  0.489783E-09   0.00000       0.00000    
    96.976  0.444585E-10  0.454278E-09   0.00000       0.00000    
   100.007  0.649800E-10  0.412700E-09   0.00000       0.00000    
   103.037  0.769459E-10  0.367737E-09   0.00000       0.00000    
   106.067  0.797102E-10  0.322487E-09   0.00000       0.00000    
   109.097  0.734853E-10  0.279922E-09   0.00000       0.00000    
   112.127  0.593280E-10  0.242813E-09   0.00000       0.00000    
   115.158  0.390574E-10  0.213528E-09   0.00000       0.00000    
   118.188  0.151152E-10  0.193842E-09   0.00000       0.00000    
   121.218 -0.963229E-11  0.184802E-09   0.00000       0.00000    
   124.248 -0.321280E-10  0.186635E-09   0.00000       0.00000    
   127.278 -0.493777E-10  0.198706E-09   0.00000       0.00000    
   130.309 -0.587047E-10  0.219553E-09   0.00000       0.00000    
   133.339 -0.579841E-10  0.246966E-09   0.00000       0.00000    
   136.369 -0.458353E-10  0.278134E-09   0.00000       0.00000    
   139.399 -0.217631E-10  0.309833E-09   0.00000       0.00000    
   142.429  0.137743E-10  0.338653E-09   0.00000       0.00000    
   145.460  0.593656E-10  0.361236E-09   0.00000       0.00000    
   148.490  0.112727E-09  0.374530E-09   0.00000       0.00000    
   151.520  0.170852E-09  0.376006E-09   0.00000       0.00000    
   154.550  0.230212E-09  0.363861E-09   0.00000       0.00000    
   157.580  0.287016E-09  0.337168E-09   0.00000       0.00000    
   160.611  0.337478E-09  0.295957E-09   0.00000       0.00000    
   163.641  0.378094E-09  0.241240E-09   0.00000       0.00000    
   166.671  0.405906E-09  0.174971E-09   0.00000       0.00000    
   169.701  0.418710E-09  0.999255E-10   0.00000       0.00000    
   172.732  0.415230E-09  0.195360E-10   0.00000       0.00000    
   175.762  0.395208E-09 -0.623261E-10   0.00000       0.00000    
   178.792  0.359421E-09 -0.141598E-09   0.00000       0.00000    
   181.822  0.309629E-09 -0.214288E-09   0.00000       0.00000    
   184.852  0.248444E-09 -0.276725E-09   0.00000       0.00000    
   187.883  0.179145E-09 -0.325802E-09   0.00000       0.00000    
   190.913  0.105443E-09 -0.359163E-09   0.00000       0.00000    
   193.943 -0.173121E-10 -0.307128E-09  0.117690E-09 -0.986554E-10
   196.973 -0.773356E-10 -0.297243E-09  0.672214E-10 -0.122925E-09
   200.003  0.346827E-10 -0.708561E-10 -0.188207E-09 -0.299573E-09
   203.034  0.793226E-10 -0.117979E-09 -0.259116E-09 -0.230743E-09
   206.064  0.796723E-10 -0.190631E-09 -0.300870E-09 -0.141665E-09
   209.094  0.290024E-10 -0.259193E-09 -0.307927E-09 -0.466473E-10
   212.124 -0.625510E-10 -0.295403E-09 -0.282057E-09  0.393082E-10
   215.154 -0.171470E-09 -0.280948E-09 -0.231618E-09  0.104149E-09
   218.185 -0.268228E-09 -0.212818E-09 -0.169120E-09  0.141493E-09
   221.215 -0.326232E-09 -0.103970E-09 -0.107832E-09  0.151711E-09
   224.245 -0.329646E-09  0.207710E-10 -0.583897E-10  0.141150E-09
   227.275 -0.277812E-09  0.132182E-09 -0.263615E-10  0.119803E-09
   230.305 -0.185071E-09  0.205173E-09 -0.113893E-10  0.981428E-10
   233.336 -0.762291E-10  0.225824E-09 -0.806950E-11  0.840880E-10
   236.366  0.208656E-10  0.194925E-09 -0.821987E-11  0.809301E-10
   239.396  0.833314E-10  0.127119E-09 -0.380844E-11  0.867926E-10
   242.426  0.994846E-10  0.460677E-10  0.103511E-10  0.956921E-10
   245.456  0.715565E-10 -0.227572E-10  0.349217E-10  0.998182E-10
   248.487  0.142549E-10 -0.594663E-10  0.658438E-10  0.923033E-10
   251.517 -0.502096E-10 -0.551528E-10  0.956234E-10  0.696393E-10
   254.547 -0.990162E-10 -0.138304E-10  0.115685E-09  0.330260E-10
   257.577 -0.115435E-09  0.494884E-10  0.119064E-09 -0.117280E-10
   260.607 -0.933955E-10  0.113806E-09  0.102636E-09 -0.556954E-10
   263.638 -0.387039E-10  0.158635E-09  0.682382E-10 -0.892636E-10
   266.668  0.332720E-10  0.169985E-09  0.223722E-10 -0.104782E-09
   269.698  0.102578E-09  0.144134E-09 -0.254098E-10 -0.986738E-10
   272.728  0.150719E-09  0.882052E-10 -0.649543E-10 -0.724221E-10
   275.758  0.165940E-09  0.175505E-10 -0.880884E-10 -0.321736E-10
   278.789  0.146269E-09 -0.491024E-10 -0.906247E-10  0.128858E-10
   281.819  0.995453E-10 -0.952191E-10 -0.732521E-10  0.529091E-10
   284.849  0.406070E-10 -0.111065E-09 -0.411163E-10  0.798335E-10
   287.879 -0.133748E-10 -0.960887E-10 -0.226024E-11  0.892349E-10
   290.909 -0.479658E-10 -0.585067E-10  0.345913E-10  0.811144E-10
   293.940 -0.554412E-10 -0.123936E-10  0.622619E-10  0.594639E-10
   296.970 -0.365916E-10  0.267449E-10  0.767602E-10  0.308096E-10
   300.000  0.163088E-13  0.232699E-10  0.389543E-10  0.110109E-11

         1   # Prop. dir.: 1 forw; 2 backw
         3   # Sector #
     0.280   # Range in km 
 Depth (m)         Re(u)         Im(u)         Re(w)         Im(w)
     0.010  0.931872E-13 -0.368271E-13   0.00000       0.00000    
     3.040  0.563778E-10 -0.224430E-10   0.00000       0.00000    
     6.070  0.110889E-09 -0.450935E-10   0.00000       0.00000    
     9.101  0.162123E-09 -0.682729E-10   0.00000       0.00000    
    12.131  0.208640E-09 -0.921666E-10   0.00000       0.00000    
    15.161  0.249216E-09 -0.116870E-09   0.00000       0.00000    
    18.191  0.282901E-09 -0.142372E-09   0.00000       0.00000    
    21.221  0.309054E-09 -0.168540E-09   0.00000       0.00000    
    24.252  0.327359E-09 -0.195114E-09   0.00000       0.00000    
    27.282  0.337829E-09 -0.221716E-09   0.00000       0.00000    
    30.312  0.340791E-09 -0.247858E-09   0.00000       0.00000    
    33.342  0.336846E-09 -0.272960E-09   0.00000       0.00000    
    36.372  0.326828E-09 -0.296385E-09   0.00000       0.00000    
    39.403  0.311748E-09 -0.317453E-09   0.00000       0.00000    
    42.433  0.292724E-09 -0.335488E-09   0.00000       0.00000    
    45.463  0.270925E-09 -0.349841E-09   0.00000       0.00000    
    48.493  0.247509E-09 -0.359928E-09   0.00000       0.00000    
    51.523  0.223561E-09 -0.365255E-09   0.00000       0.00000    
    54.554  0.200053E-09 -0.365444E-09   0.00000       0.00000    
    57.584  0.177812E-09 -0.360256E-09   0.00000       0.00000    
    60.614  0.157493E-09 -0.349597E-09   0.00000       0.00000    
    63.644  0.139582E-09 -0.333538E-09   0.00000       0.00000    
    66.674  0.124392E-09 -0.312305E-09   0.00000       0.00000    
    69.705  0.112091E-09 -0.286290E-09   0.00000       0.00000    
    72.735  0.102721E-09 -0.256031E-09   0.00000       0.00000    
    75.765  0.962311E-10 -0.222208E-09   0.00000       0.00000    
    78.795  0.925119E-10 -0.185627E-09   0.00000       0.00000    
    81.825  0.914267E-10 -0.147198E-09   0.00000       0.00000    
    84.856  0.928386E-10 -0.107917E-09   0.00000       0.00000    
    87.886  0.966302E-10 -0.688400E-10   0.00000       0.00000    
    90.916  0.102714E-09 -0.310587E-10   0.00000       0.00000    
    93.946  0.111032E-09  0.432794E-11   0.00000       0.00000    
    96.976  0.121549E-09  0.362439E-10   0.00000       0.00000    
   100.007  0.134232E-09  0.636669E-10   0.00000       0.00000    
   103.037  0.149024E-09  0.856616E-10   0.00000       0.00000    
   106.067  0.165820E-09  0.101413E-09   0.00000       0.00000    
   109.097  0.184431E-09  0.110260E-09   0.00000       0.00000    
   112.127  0.204562E-09  0.111726E-09   0.00000       0.00000    
   115.158  0.225791E-09  0.105548E-09   0.00000       0.00000    
   118.188  0.247558E-09  0.917013E-10   0.00000       0.00000    
   121.218  0.269163E-09  0.704139E-10   0.00000       0.00000    
   124.248  0.289786E-09  0.421809E-10   0.00000       0.00000    
   127.278  0.308510E-09  0.775918E-11   0.00000       0.00000    
   130.309  0.324362E-09 -0.318425E-10   0.00000       0.00000    
   133.339  0.336366E-09 -0.753882E-10   0.00000       0.00000    
   136.369  0.343599E-09 -0.121450E-09   0.00000       0.00000    
   139.399  0.345257E-09 -0.168456E-09   0.00000       0.00000    
   142.429  0.340709E-09 -0.214749E-09   0.00000       0.00000    
   145.460  0.329561E-09 -0.258652E-09   0.00000       0.00000    
   148.490  0.311695E-09 -0.298539E-09   0.00000       0.00000    
   151.520  0.287302E-09 -0.332910E-09   0.00000       0.00000    
   154.550  0.256894E-09 -0.360454E-09   0.00000       0.00000    
   157.580  0.221299E-09 -0.380121E-09   0.00000       0.00000    
   160.611  0.181629E-09 -0.391171E-09   0.00000       0.00000    
   163.641  0.139244E-09 -0.393203E-09   0.00000       0.00000    
   166.671  0.956806E-10 -0.386179E-09   0.00000       0.00000    
   169.701  0.525911E-10 -0.370403E-09   0.00000       0.00000    
   172.732  0.116719E-10 -0.346484E-09   0.00000       0.00000    
   175.762 -0.253866E-10 -0.315236E-09   0.00000       0.00000    
   178.792 -0.569066E-10 -0.277521E-09   0.00000       0.00000    
   181.822 -0.811436E-10 -0.233991E-09   0.00000       0.00000    
   184.852 -0.960416E-10 -0.184630E-09   0.00000       0.00000    
   187.883 -0.897938E-10 -0.114108E-09 -0.107155E-10 -0.673179E-10
   190.913 -0.872584E-10 -0.724348E-10 -0.314197E-10 -0.565640E-10
   193.943  0.922020E-10 -0.117417E-09 -0.237044E-09  0.109425E-09
   196.973  0.481978E-10 -0.176007E-09 -0.202641E-09  0.145960E-09
   200.003  0.130252E-11 -0.196838E-09 -0.147431E-09  0.165276E-09
   203.034 -0.432891E-10 -0.184377E-09 -0.845959E-10  0.167810E-09
   206.064 -0.748551E-10 -0.146016E-09 -0.244755E-10  0.154195E-09
   209.094 -0.841644E-10 -0.937299E-10  0.251277E-10  0.127354E-09
   212.124 -0.678038E-10 -0.422467E-10  0.595530E-10  0.924993E-10
   215.154 -0.296830E-10 -0.552986E-11  0.777177E-10  0.559324E-10
   218.185  0.200802E-10  0.682206E-11  0.818861E-10  0.234242E-10
   221.215  0.681814E-10 -0.804287E-11  0.767179E-10 -0.120496E-11
   224.245  0.101959E-09 -0.457984E-10  0.678133E-10 -0.168665E-10
   227.275  0.112836E-09 -0.965180E-10  0.601622E-10 -0.251761E-10
   230.305  0.983704E-10 -0.147700E-09  0.569040E-10 -0.296846E-10
   233.336  0.624424E-10 -0.187773E-09  0.586993E-10 -0.346481E-10
   236.366  0.136385E-10 -0.209050E-09  0.638189E-10 -0.437144E-10
   239.396 -0.375312E-10 -0.209308E-09  0.688653E-10 -0.588858E-10
   242.426 -0.816775E-10 -0.191664E-09  0.698600E-10 -0.800119E-10
   245.456 -0.112919E-09 -0.162948E-09  0.633869E-10 -0.104889E-09
   248.487 -0.129958E-09 -0.131183E-09  0.474774E-10 -0.129876E-09
   251.517 -0.135665E-09 -0.103036E-09  0.220534E-10 -0.150799E-09
   254.547 -0.135435E-09 -0.820273E-10 -0.111299E-10 -0.163899E-09
   257.577 -0.134977E-09 -0.679556E-10 -0.489507E-10 -0.166554E-09
   260.607 -0.138278E-09 -0.576190E-10 -0.876097E-10 -0.157661E-09
   263.638 -0.146403E-09 -0.464470E-10 -0.123347E-09 -0.137642E-09
   266.668 -0.157432E-09 -0.304191E-10 -0.152996E-09 -0.108155E-09
   269.698 -0.167452E-09 -0.759653E-11 -0.174301E-09 -0.716500E-10
   272.728 -0.172182E-09  0.212317E-10 -0.185995E-09 -0.309200E-10
   275.758 -0.168591E-09  0.529378E-10 -0.187693E-09  0.112463E-10
   278.789 -0.155957E-09  0.832732E-10 -0.179718E-09  0.522799E-10
   281.819 -0.136008E-09  0.108422E-09 -0.162943E-09  0.899300E-10
   284.849 -0.112146E-09  0.126307E-09 -0.138670E-09  0.122309E-09
   287.879 -0.880802E-10  0.137169E-09 -0.108561E-09  0.147939E-09
   290.909 -0.663962E-10  0.143244E-09 -0.745644E-10  0.165841E-09
   293.940 -0.476166E-10  0.147642E-09 -0.387799E-10  0.175623E-09
   296.970 -0.300948E-10  0.152900E-09 -0.325925E-11  0.177547E-09
   300.000 -0.540302E-11  0.798675E-10  0.151257E-10  0.862399E-10

         1   # Prop. dir.: 1 forw; 2 backw
         4   # Sector #
     0.420   # Range in km 
 Depth (m)         Re(u)         Im(u)         Re(w)         Im(w)
     0.010 -0.296168E-13 -0.540262E-13   0.00000       0.00000    
     3.040 -0.179943E-10 -0.327380E-10   0.00000       0.00000    
     6.070 -0.358666E-10 -0.647064E-10   0.00000       0.00000    
     9.101 -0.536106E-10 -0.953844E-10   0.00000       0.00000    
    12.131 -0.711553E-10 -0.124204E-09   0.00000       0.00000    
    15.161 -0.884228E-10 -0.150684E-09   0.00000       0.00000    
    18.191 -0.105328E-09 -0.174445E-09   0.00000       0.00000    
    21.221 -0.121783E-09 -0.195227E-09   0.00000       0.00000    
    24.252 -0.137692E-09 -0.212891E-09   0.00000       0.00000    
    27.282 -0.152968E-09 -0.227417E-09   0.00000       0.00000    
    30.312 -0.167525E-09 -0.238892E-09   0.00000       0.00000    
    33.342 -0.181295E-09 -0.247492E-09   0.00000       0.00000    
    36.372 -0.194225E-09 -0.253465E-09   0.00000       0.00000    
    39.403 -0.206286E-09 -0.257095E-09   0.00000       0.00000    
    42.433 -0.217475E-09 -0.258681E-09   0.00000       0.00000    
    45.463 -0.227814E-09 -0.258506E-09   0.00000       0.00000    
    48.493 -0.237352E-09 -0.256816E-09   0.00000       0.00000    
    51.523 -0.246155E-09 -0.253798E-09   0.00000       0.00000    
    54.554 -0.254302E-09 -0.249564E-09   0.00000       0.00000    
    57.584 -0.261879E-09 -0.244148E-09   0.00000       0.00000    
    60.614 -0.268959E-09 -0.237506E-09   0.00000       0.00000    
    63.644 -0.275599E-09 -0.229527E-09   0.00000       0.00000    
    66.674 -0.281823E-09 -0.220048E-09   0.00000       0.00000    
    69.705 -0.287615E-09 -0.208876E-09   0.00000       0.00000    
    72.735 -0.292908E-09 -0.195822E-09   0.00000       0.00000    
    75.765 -0.297583E-09 -0.180724E-09   0.00000       0.00000    
    78.795 -0.301469E-09 -0.163485E-09   0.00000       0.00000    
    81.825 -0.304344E-09 -0.144095E-09   0.00000       0.00000    
    84.856 -0.305949E-09 -0.122664E-09   0.00000       0.00000    
    87.886 -0.306002E-09 -0.994295E-10   0.00000       0.00000    
    90.916 -0.304215E-09 -0.747762E-10   0.00000       0.00000    
    93.946 -0.300319E-09 -0.492304E-10   0.00000       0.00000    
    96.976 -0.294084E-09 -0.234521E-10   0.00000       0.00000    
   100.007 -0.285345E-09  0.178395E-11   0.00000       0.00000    
   103.037 -0.274028E-09  0.256192E-10   0.00000       0.00000    
   106.067 -0.260159E-09  0.471471E-10   0.00000       0.00000    
   109.097 -0.243889E-09  0.654564E-10   0.00000       0.00000    
   112.127 -0.225497E-09  0.796788E-10   0.00000       0.00000    
   115.158 -0.205390E-09  0.890362E-10   0.00000       0.00000    
   118.188 -0.184093E-09  0.928869E-10   0.00000       0.00000    
   121.218 -0.162237E-09  0.907682E-10   0.00000       0.00000    
   124.248 -0.140533E-09  0.824288E-10   0.00000       0.00000    
   127.278 -0.119740E-09  0.678569E-10   0.00000       0.00000    
   130.309 -0.100632E-09  0.472912E-10   0.00000       0.00000    
   133.339 -0.839545E-10  0.212246E-10   0.00000       0.00000    
   136.369 -0.703868E-10 -0.960654E-11   0.00000       0.00000    
   139.399 -0.605029E-10 -0.442463E-10   0.00000       0.00000    
   142.429 -0.547345E-10 -0.815521E-10   0.00000       0.00000    
   145.460 -0.533429E-10 -0.120238E-09   0.00000       0.00000    
   148.490 -0.563971E-10 -0.158928E-09   0.00000       0.00000    
   151.520 -0.637599E-10 -0.196209E-09   0.00000       0.00000    
   154.550 -0.750854E-10 -0.230693E-09   0.00000       0.00000    
   157.580 -0.898236E-10 -0.261072E-09   0.00000       0.00000    
   160.611 -0.107233E-09 -0.286180E-09   0.00000       0.00000    
   163.641 -0.126390E-09 -0.305044E-09   0.00000       0.00000    
   166.671 -0.146199E-09 -0.316948E-09   0.00000       0.00000    
   169.701 -0.165370E-09 -0.321483E-09   0.00000       0.00000    
   172.732 -0.182349E-09 -0.318643E-09   0.00000       0.00000    
   175.762 -0.195138E-09 -0.308942E-09   0.00000       0.00000    
   178.792 -0.200912E-09 -0.293653E-09   0.00000       0.00000    
   181.822 -0.176146E-09 -0.212957E-09 -0.402432E-10 -0.279411E-10
   184.852 -0.170786E-09 -0.190957E-09 -0.466091E-10 -0.154269E-10
   187.883 -0.477281E-10 -0.275915E-09 -0.103850E-09  0.885097E-10
   190.913 -0.990995E-10 -0.294906E-09 -0.902705E-10  0.113011E-09
   193.943 -0.159433E-09 -0.298424E-09 -0.675334E-10  0.121044E-09
   196.973 -0.221786E-09 -0.274449E-09 -0.409059E-10  0.112825E-09
   200.003 -0.272659E-09 -0.221912E-09 -0.181240E-10  0.899006E-10
   203.034 -0.299038E-09 -0.149247E-09 -0.611250E-11  0.568957E-10
   206.064 -0.293493E-09 -0.712547E-10 -0.863264E-11  0.210662E-10
   209.094 -0.256861E-09 -0.467399E-11 -0.251158E-10 -0.944237E-11
   212.124 -0.198246E-09  0.365521E-10 -0.508079E-10 -0.277970E-10
   215.154 -0.132569E-09  0.451415E-10 -0.781038E-10 -0.303843E-10
   218.185 -0.764710E-10  0.224568E-10 -0.986713E-10 -0.178322E-10
   221.215 -0.437532E-10 -0.218884E-10 -0.105774E-09  0.514813E-11
   224.245 -0.416248E-10 -0.726703E-10 -0.961646E-10  0.310575E-10
   227.275 -0.687789E-10 -0.113207E-09 -0.710220E-10  0.516807E-10
   230.305 -0.115811E-09 -0.129877E-09 -0.356971E-10  0.603618E-10
   233.336 -0.167840E-09 -0.115778E-09  0.167867E-11  0.538570E-10
   236.366 -0.208595E-09 -0.725434E-10  0.323383E-10  0.332599E-10
   239.396 -0.224849E-09 -0.984434E-11  0.492005E-10  0.374318E-11
   242.426 -0.209985E-09  0.572652E-10  0.487463E-10 -0.268110E-10
   245.456 -0.165756E-09  0.112422E-09  0.319471E-10 -0.499249E-10
   248.487 -0.101762E-09  0.142330E-09  0.400101E-11 -0.588087E-10
   251.517 -0.328387E-10  0.140267E-09 -0.270488E-10 -0.502054E-10
   254.547  0.249336E-10  0.107788E-09 -0.524428E-10 -0.252967E-10
   257.577  0.585056E-10  0.542034E-10 -0.650071E-10  0.105651E-10
   260.607  0.612658E-10 -0.600161E-11 -0.610213E-10  0.492263E-10
   263.638  0.346897E-10 -0.570885E-10 -0.411596E-10  0.818388E-10
   266.668 -0.121916E-10 -0.862477E-10 -0.102646E-10  0.101134E-09
   269.698 -0.653216E-10 -0.869387E-10  0.239749E-10  0.103268E-09
   272.728 -0.109449E-09 -0.604999E-10  0.530807E-10  0.887597E-10
   275.758 -0.132211E-09 -0.156379E-10  0.700204E-10  0.622703E-10
   278.789 -0.127387E-09  0.340405E-10  0.710348E-10  0.313081E-10
   281.819 -0.964762E-10  0.737627E-10  0.565715E-10  0.420610E-11
   284.849 -0.481911E-10  0.915788E-10  0.310943E-10 -0.120794E-10
   287.879  0.394459E-11  0.815487E-10  0.183128E-11 -0.137710E-10
   290.909  0.452472E-10  0.452947E-10 -0.231946E-10 -0.119931E-11
   293.940  0.637782E-10 -0.846385E-11 -0.373146E-10  0.213741E-10
   296.970  0.534822E-10 -0.662380E-10 -0.369793E-10  0.469767E-10
   300.000  0.787036E-11 -0.566631E-10 -0.113337E-10  0.339280E-10

         1   # Prop. dir.: 1 forw; 2 backw
         5   # Sector #
     0.560   # Range in km 
 Depth (m)         Re(u)         Im(u)         Re(w)         Im(w)
     0.010 -0.347835E-13  0.248005E-13   0.00000       0.00000    
     3.040 -0.211173E-10  0.150247E-10   0.00000       0.00000    
     6.070 -0.419874E-10  0.296809E-10   0.00000       0.00000    
     9.101 -0.624958E-10  0.437217E-10   0.00000       0.00000    
    12.131 -0.824446E-10  0.568927E-10   0.00000       0.00000    
    15.161 -0.101618E-09  0.689987E-10   0.00000       0.00000    
    18.191 -0.119779E-09  0.799182E-10   0.00000       0.00000    
    21.221 -0.136674E-09  0.896115E-10   0.00000       0.00000    
    24.252 -0.152032E-09  0.981260E-10   0.00000       0.00000    
    27.282 -0.165572E-09  0.105595E-09   0.00000       0.00000    
    30.312 -0.177018E-09  0.112229E-09   0.00000       0.00000    
    33.342 -0.186104E-09  0.118308E-09   0.00000       0.00000    
    36.372 -0.192595E-09  0.124161E-09   0.00000       0.00000    
    39.403 -0.196292E-09  0.130151E-09   0.00000       0.00000    
    42.433 -0.197053E-09  0.136649E-09   0.00000       0.00000    
    45.463 -0.194802E-09  0.144017E-09   0.00000       0.00000    
    48.493 -0.189539E-09  0.152582E-09   0.00000       0.00000    
    51.523 -0.181345E-09  0.162615E-09   0.00000       0.00000    
    54.554 -0.170387E-09  0.174315E-09   0.00000       0.00000    
    57.584 -0.156909E-09  0.187797E-09   0.00000       0.00000    
    60.614 -0.141238E-09  0.203076E-09   0.00000       0.00000    
    63.644 -0.123764E-09  0.220068E-09   0.00000       0.00000    
    66.674 -0.104929E-09  0.238589E-09   0.00000       0.00000    
    69.705 -0.852125E-10  0.258354E-09   0.00000       0.00000    
    72.735 -0.651119E-10  0.278997E-09   0.00000       0.00000    
    75.765 -0.451233E-10  0.300078E-09   0.00000       0.00000    
    78.795 -0.257245E-10  0.321101E-09   0.00000       0.00000    
    81.825 -0.735552E-11  0.341536E-09   0.00000       0.00000    
    84.856  0.959486E-11  0.360836E-09   0.00000       0.00000    
    87.886  0.248018E-10  0.378460E-09   0.00000       0.00000    
    90.916  0.380129E-10  0.393897E-09   0.00000       0.00000    
    93.946  0.490528E-10  0.406676E-09   0.00000       0.00000    
    96.976  0.578236E-10  0.416391E-09   0.00000       0.00000    
   100.007  0.643020E-10  0.422711E-09   0.00000       0.00000    
   103.037  0.685333E-10  0.425387E-09   0.00000       0.00000    
   106.067  0.706214E-10  0.424265E-09   0.00000       0.00000    
   109.097  0.707195E-10  0.419282E-09   0.00000       0.00000    
   112.127  0.690159E-10  0.410469E-09   0.00000       0.00000    
   115.158  0.657247E-10  0.397946E-09   0.00000       0.00000    
   118.188  0.610714E-10  0.381914E-09   0.00000       0.00000    
   121.218  0.552820E-10  0.362646E-09   0.00000       0.00000    
   124.248  0.485775E-10  0.340476E-09   0.00000       0.00000    
   127.278  0.411637E-10  0.315785E-09   0.00000       0.00000    
   130.309  0.332279E-10  0.288993E-09   0.00000       0.00000    
   133.339  0.249364E-10  0.260540E-09   0.00000       0.00000    
   136.369  0.164349E-10  0.230877E-09   0.00000       0.00000    
   139.399  0.784927E-11  0.200456E-09   0.00000       0.00000    
   142.429 -0.710767E-12  0.169714E-09   0.00000       0.00000    
   145.460 -0.914642E-11  0.139069E-09   0.00000       0.00000    
   148.490 -0.173642E-10  0.108909E-09   0.00000       0.00000    
   151.520 -0.252679E-10  0.795788E-10   0.00000       0.00000    
   154.550 -0.327477E-10  0.513752E-10   0.00000       0.00000    
   157.580 -0.396627E-10  0.245206E-10   0.00000       0.00000    
   160.611 -0.458146E-10 -0.864966E-12   0.00000       0.00000    
   163.641 -0.508960E-10 -0.248223E-10   0.00000       0.00000    
   166.671 -0.544005E-10 -0.476623E-10   0.00000       0.00000    
   169.701 -0.554498E-10 -0.701696E-10   0.00000       0.00000    
   172.732 -0.543954E-10 -0.739673E-10  0.265461E-12 -0.142924E-10
   175.762 -0.529925E-10 -0.886686E-10 -0.495269E-11 -0.123319E-10
   178.792 -0.465062E-10 -0.106101E-09 -0.105490E-10 -0.100043E-10
   181.822 -0.140952E-09 -0.926330E-10  0.780992E-10  0.315334E-10
   184.852 -0.141756E-09 -0.769988E-10  0.594808E-10  0.167147E-10
   187.883 -0.134339E-09 -0.744823E-10  0.374270E-10  0.422038E-11
   190.913 -0.125595E-09 -0.806916E-10  0.163662E-10 -0.341256E-11
   193.943 -0.119935E-09 -0.922527E-10 -0.109462E-11 -0.606018E-11
   196.973 -0.119798E-09 -0.105873E-09 -0.135777E-10 -0.495491E-11
   200.003 -0.125836E-09 -0.118321E-09 -0.207456E-10 -0.196214E-11
   203.034 -0.137141E-09 -0.126826E-09 -0.231834E-10  0.995683E-12
   206.064 -0.151668E-09 -0.129534E-09 -0.221983E-10  0.238660E-11
   209.094 -0.166824E-09 -0.125825E-09 -0.195118E-10  0.135935E-11
   212.124 -0.180117E-09 -0.116324E-09 -0.168910E-10 -0.215152E-11
   215.154 -0.189713E-09 -0.102643E-09 -0.157981E-10 -0.750478E-11
   218.185 -0.194778E-09 -0.868975E-10 -0.171328E-10 -0.135781E-10
   221.215 -0.195531E-09 -0.711517E-10 -0.211188E-10 -0.190733E-10
   224.245 -0.193033E-09 -0.569338E-10 -0.273461E-10 -0.228238E-10
   227.275 -0.188780E-09 -0.449431E-10 -0.349429E-10 -0.240314E-10
   230.305 -0.184229E-09 -0.350082E-10 -0.428222E-10 -0.223896E-10
   233.336 -0.180387E-09 -0.262831E-10 -0.499361E-10 -0.180791E-10
   236.366 -0.177583E-09 -0.176054E-10 -0.554793E-10 -0.116557E-10
   239.396 -0.175444E-09 -0.790223E-11 -0.590024E-10 -0.387547E-11
   242.426 -0.173083E-09  0.347333E-11 -0.604239E-10  0.449302E-11
   245.456 -0.169408E-09  0.165630E-10 -0.599568E-10  0.128202E-10
   248.487 -0.163461E-09  0.308135E-10 -0.579836E-10  0.207025E-10
   251.517 -0.154687E-09  0.452541E-10 -0.549214E-10  0.279768E-10
   254.547 -0.143052E-09  0.587674E-10 -0.511073E-10  0.346736E-10
   257.577 -0.129011E-09  0.703666E-10 -0.467322E-10  0.409340E-10
   260.607 -0.113346E-09  0.793937E-10 -0.418213E-10  0.469173E-10
   263.638 -0.969418E-10  0.855906E-10 -0.362586E-10  0.527202E-10
   266.668 -0.805902E-10  0.890479E-10 -0.298370E-10  0.583223E-10
   269.698 -0.648715E-10  0.900642E-10 -0.223204E-10  0.635570E-10
   272.728 -0.501442E-10  0.889925E-10 -0.135088E-10  0.681065E-10
   275.758 -0.366248E-10  0.861311E-10 -0.330203E-11  0.715148E-10
   278.789 -0.245033E-10  0.817034E-10  0.823979E-11  0.732214E-10
   281.819 -0.140255E-10  0.759283E-10  0.208395E-10  0.726134E-10
   284.849 -0.549777E-11  0.691324E-10  0.339584E-10  0.691091E-10
   287.879  0.808944E-12  0.618463E-10  0.467807E-10  0.622688E-10
   290.909  0.482194E-11  0.548134E-10  0.582472E-10  0.519270E-10
   293.940  0.683072E-11  0.488787E-10  0.671514E-10  0.383201E-10
   296.970  0.757097E-11  0.447678E-10  0.723100E-10  0.221780E-10
   300.000  0.408112E-11  0.214071E-10  0.363905E-10  0.236820E-11

         1   # Prop. dir.: 1 forw; 2 backw
         6   # Sector #
     0.700   # Range in km 
 Depth (m)         Re(u)         Im(u)         Re(w)         Im(w)
     0.010 -0.187772E-13 -0.621640E-15   0.00000       0.00000    
     3.040 -0.113108E-10 -0.356261E-12   0.00000       0.00000    
     6.070 -0.219364E-10 -0.570640E-12   0.00000       0.00000    
     9.101 -0.312891E-10 -0.516642E-12   0.00000       0.00000    
    12.131 -0.387829E-10 -0.904468E-13   0.00000       0.00000    
    15.161 -0.438894E-10  0.778136E-12   0.00000       0.00000    
    18.191 -0.461534E-10  0.211842E-11   0.00000       0.00000    
    21.221 -0.452068E-10  0.391458E-11   0.00000       0.00000    
    24.252 -0.407786E-10  0.610476E-11   0.00000       0.00000    
    27.282 -0.327027E-10  0.858368E-11   0.00000       0.00000    
    30.312 -0.209212E-10  0.112083E-10   0.00000       0.00000    
    33.342 -0.548504E-11  0.138068E-10   0.00000       0.00000    
    36.372  0.134492E-10  0.161894E-10   0.00000       0.00000    
    39.403  0.356260E-10  0.181610E-10   0.00000       0.00000    
    42.433  0.606996E-10  0.195349E-10   0.00000       0.00000    
    45.463  0.882467E-10  0.201448E-10   0.00000       0.00000    
    48.493  0.117780E-09  0.198582E-10   0.00000       0.00000    
    51.523  0.148761E-09  0.185849E-10   0.00000       0.00000    
    54.554  0.180622E-09  0.162856E-10   0.00000       0.00000    
    57.584  0.212778E-09  0.129750E-10   0.00000       0.00000    
    60.614  0.244643E-09  0.872264E-11   0.00000       0.00000    
    63.644  0.275649E-09  0.365048E-11   0.00000       0.00000    
    66.674  0.305255E-09 -0.207445E-11   0.00000       0.00000    
    69.705  0.332966E-09 -0.824853E-11   0.00000       0.00000    
    72.735  0.358337E-09 -0.146443E-10   0.00000       0.00000    
    75.765  0.380987E-09 -0.210235E-10   0.00000       0.00000    
    78.795  0.400601E-09 -0.271515E-10   0.00000       0.00000    
    81.825  0.416935E-09 -0.328117E-10   0.00000       0.00000    
    84.856  0.429819E-09 -0.378191E-10   0.00000       0.00000    
    87.886  0.439149E-09 -0.420313E-10   0.00000       0.00000    
    90.916  0.444896E-09 -0.453575E-10   0.00000       0.00000    
    93.946  0.447089E-09 -0.477648E-10   0.00000       0.00000    
    96.976  0.445815E-09 -0.492797E-10   0.00000       0.00000    
   100.007  0.441210E-09 -0.499871E-10   0.00000       0.00000    
   103.037  0.433453E-09 -0.500253E-10   0.00000       0.00000    
   106.067  0.422755E-09 -0.495771E-10   0.00000       0.00000    
   109.097  0.409350E-09 -0.488595E-10   0.00000       0.00000    
   112.127  0.393493E-09 -0.481101E-10   0.00000       0.00000    
   115.158  0.375443E-09 -0.475720E-10   0.00000       0.00000    
   118.188  0.355466E-09 -0.474786E-10   0.00000       0.00000    
   121.218  0.333824E-09 -0.480387E-10   0.00000       0.00000    
   124.248  0.310772E-09 -0.494229E-10   0.00000       0.00000    
   127.278  0.286558E-09 -0.517516E-10   0.00000       0.00000    
   130.309  0.261416E-09 -0.550862E-10   0.00000       0.00000    
   133.339  0.235571E-09 -0.594226E-10   0.00000       0.00000    
   136.369  0.209234E-09 -0.646902E-10   0.00000       0.00000    
   139.399  0.182608E-09 -0.707517E-10   0.00000       0.00000    
   142.429  0.155882E-09 -0.774105E-10   0.00000       0.00000    
   145.460  0.129238E-09 -0.844214E-10   0.00000       0.00000    
   148.490  0.102844E-09 -0.915038E-10   0.00000       0.00000    
   151.520  0.768544E-10 -0.983664E-10   0.00000       0.00000    
   154.550  0.513921E-10 -0.104737E-09   0.00000       0.00000    
   157.580  0.265331E-10 -0.110411E-09   0.00000       0.00000    
   160.611  0.226039E-11 -0.115327E-09   0.00000       0.00000    
   163.641 -0.216144E-10 -0.119699E-09   0.00000       0.00000    
   166.671 -0.359802E-10 -0.929620E-10  0.236619E-11 -0.983877E-11
   169.701 -0.529358E-10 -0.947751E-10  0.440284E-13 -0.948644E-11
   172.732 -0.557293E-10 -0.466710E-10  0.789700E-11 -0.739643E-10
   175.762 -0.352476E-10 -0.504227E-10 -0.654102E-11 -0.606784E-10
   178.792 -0.283310E-10 -0.683196E-10 -0.173167E-10 -0.408707E-10
   181.822 -0.353528E-10 -0.907026E-10 -0.207037E-10 -0.195566E-10
   184.852 -0.547310E-10 -0.109431E-09 -0.163580E-10 -0.113395E-11
   187.883 -0.824261E-10 -0.118494E-09 -0.636540E-11  0.110857E-10
   190.913 -0.112545E-09 -0.114824E-09  0.574104E-11  0.154013E-10
   193.943 -0.138662E-09 -0.987431E-10  0.160347E-10  0.120246E-10
   196.973 -0.155378E-09 -0.737289E-10  0.212260E-10  0.296876E-11
   200.003 -0.159653E-09 -0.454579E-10  0.194793E-10 -0.848733E-11
   203.034 -0.151550E-09 -0.203393E-10  0.108428E-10 -0.186407E-10
   206.064 -0.134188E-09 -0.388545E-11 -0.279844E-11 -0.243034E-10
   209.094 -0.112918E-09  0.667735E-12 -0.182293E-10 -0.236014E-10
   212.124 -0.939399E-10 -0.685136E-11 -0.317371E-10 -0.164340E-10
   215.154 -0.827176E-10 -0.235467E-10 -0.400598E-10 -0.447860E-11
   218.185 -0.826020E-10 -0.442263E-10 -0.412110E-10  0.925582E-11
   221.215 -0.940117E-10 -0.627427E-10 -0.349765E-10  0.212096E-10
   224.245 -0.114362E-09 -0.735538E-10 -0.229636E-10  0.281882E-10
   227.275 -0.138768E-09 -0.731036E-10 -0.819587E-11  0.281815E-10
   230.305 -0.161306E-09 -0.606809E-10  0.564056E-11  0.208794E-10
   233.336 -0.176525E-09 -0.385410E-10  0.151044E-10  0.776184E-11
   236.366 -0.180810E-09 -0.112824E-10  0.178351E-10 -0.825814E-11
   239.396 -0.173255E-09  0.153563E-10  0.131101E-10 -0.235413E-10
   242.426 -0.155837E-09  0.359574E-10  0.199103E-11 -0.345983E-10
   245.456 -0.132862E-09  0.467723E-10 -0.129692E-10 -0.389182E-10
   248.487 -0.109838E-09  0.466173E-10 -0.283752E-10 -0.355420E-10
   251.517 -0.920722E-10  0.371044E-10 -0.408263E-10 -0.252488E-10
   254.547 -0.833527E-10  0.221643E-10 -0.477310E-10 -0.103172E-10
   257.577 -0.850436E-10  0.700050E-11 -0.478979E-10  0.607102E-11
   260.607 -0.958077E-10 -0.324544E-11 -0.417638E-10  0.206232E-10
   263.638 -0.112014E-09 -0.477920E-11 -0.312140E-10  0.307300E-10
   266.668 -0.128698E-09  0.393713E-11 -0.190521E-10  0.350586E-10
   269.698 -0.140831E-09  0.218627E-10 -0.826132E-11  0.338101E-10
   272.728 -0.144565E-09  0.457095E-10 -0.124868E-11  0.285864E-10
   275.758 -0.138134E-09  0.708188E-10  0.738978E-12  0.219130E-10
   278.789 -0.122218E-09  0.923498E-10 -0.211141E-11  0.165469E-10
   281.819 -0.996866E-10  0.106473E-09 -0.827676E-11  0.147526E-10
   284.849 -0.747951E-10  0.111262E-09 -0.153287E-10  0.177252E-10
   287.879 -0.520838E-10  0.107085E-09 -0.205806E-10  0.253005E-10
   290.909 -0.352395E-10  0.964056E-10 -0.217829E-10  0.360188E-10
   293.940 -0.262163E-10  0.830686E-10 -0.176903E-10  0.475102E-10
   296.970 -0.248264E-10  0.712685E-10 -0.836479E-11  0.571010E-10
   300.000 -0.144421E-10  0.322345E-10  0.242691E-11  0.312402E-10

         1   # Prop. dir.: 1 forw; 2 backw
         7   # Sector #
     0.840   # Range in km 
 Depth (m)         Re(u)         Im(u)         Re(w)         Im(w)
     0.010 -0.417823E-13 -0.883419E-14   0.00000       0.00000    
     3.040 -0.253218E-10 -0.538411E-11   0.00000       0.00000    
     6.070 -0.500438E-10 -0.108506E-10   0.00000       0.00000    
     9.101 -0.737499E-10 -0.165166E-10   0.00000       0.00000    
    12.131 -0.959697E-10 -0.224812E-10   0.00000       0.00000    
    15.161 -0.116276E-09 -0.288421E-10   0.00000       0.00000    
    18.191 -0.134294E-09 -0.356943E-10   0.00000       0.00000    
    21.221 -0.149714E-09 -0.431277E-10   0.00000       0.00000    
    24.252 -0.162298E-09 -0.512250E-10   0.00000       0.00000    
    27.282 -0.171882E-09 -0.600578E-10   0.00000       0.00000    
    30.312 -0.178383E-09 -0.696831E-10   0.00000       0.00000    
    33.342 -0.181794E-09 -0.801403E-10   0.00000       0.00000    
    36.372 -0.182184E-09 -0.914457E-10   0.00000       0.00000    
    39.403 -0.179693E-09 -0.103592E-09   0.00000       0.00000    
    42.433 -0.174525E-09 -0.116545E-09   0.00000       0.00000    
    45.463 -0.166940E-09 -0.130240E-09   0.00000       0.00000    
    48.493 -0.157245E-09 -0.144587E-09   0.00000       0.00000    
    51.523 -0.145783E-09 -0.159469E-09   0.00000       0.00000    
    54.554 -0.132925E-09 -0.174743E-09   0.00000       0.00000    
    57.584 -0.119061E-09 -0.190251E-09   0.00000       0.00000    
    60.614 -0.104586E-09 -0.205815E-09   0.00000       0.00000    
    63.644 -0.898963E-10 -0.221252E-09   0.00000       0.00000    
    66.674 -0.753809E-10 -0.236375E-09   0.00000       0.00000    
    69.705 -0.614116E-10 -0.250997E-09   0.00000       0.00000    
    72.735 -0.483404E-10 -0.264940E-09   0.00000       0.00000    
    75.765 -0.364923E-10 -0.278039E-09   0.00000       0.00000    
    78.795 -0.261619E-10 -0.290143E-09   0.00000       0.00000    
    81.825 -0.176084E-10 -0.301118E-09   0.00000       0.00000    
    84.856 -0.110531E-10 -0.310845E-09   0.00000       0.00000    
    87.886 -0.667475E-11 -0.319226E-09   0.00000       0.00000    
    90.916 -0.460734E-11 -0.326172E-09   0.00000       0.00000    
    93.946 -0.493620E-11 -0.331609E-09   0.00000       0.00000    
    96.976 -0.769535E-11 -0.335472E-09   0.00000       0.00000    
   100.007 -0.128646E-10 -0.337700E-09   0.00000       0.00000    
   103.037 -0.203673E-10 -0.338239E-09   0.00000       0.00000    
   106.067 -0.300685E-10 -0.337033E-09   0.00000       0.00000    
   109.097 -0.417753E-10 -0.334034E-09   0.00000       0.00000    
   112.127 -0.552364E-10 -0.329194E-09   0.00000       0.00000    
   115.158 -0.701457E-10 -0.322470E-09   0.00000       0.00000    
   118.188 -0.861460E-10 -0.313834E-09   0.00000       0.00000    
   121.218 -0.102835E-09 -0.303264E-09   0.00000       0.00000    
   124.248 -0.119777E-09 -0.290764E-09   0.00000       0.00000    
   127.278 -0.136507E-09 -0.276360E-09   0.00000       0.00000    
   130.309 -0.152552E-09 -0.260112E-09   0.00000       0.00000    
   133.339 -0.167437E-09 -0.242104E-09   0.00000       0.00000    
   136.369 -0.180707E-09 -0.222461E-09   0.00000       0.00000    
   139.399 -0.191941E-09 -0.201336E-09   0.00000       0.00000    
   142.429 -0.200768E-09 -0.178911E-09   0.00000       0.00000    
   145.460 -0.206889E-09 -0.155381E-09   0.00000       0.00000    
   148.490 -0.210095E-09 -0.130941E-09   0.00000       0.00000    
   151.520 -0.210294E-09 -0.105749E-09   0.00000       0.00000    
   154.550 -0.207542E-09 -0.798854E-10   0.00000       0.00000    
   157.580 -0.202105E-09 -0.532645E-10   0.00000       0.00000    
   160.611 -0.149894E-09 -0.204661E-10 -0.115435E-10 -0.274186E-11
   163.641 -0.141288E-09  0.155988E-12 -0.127953E-10  0.682137E-13
   166.671 -0.956707E-10 -0.112537E-09 -0.812166E-10  0.554916E-10
   169.701 -0.121056E-09 -0.124004E-09 -0.505511E-10  0.652997E-10
   172.732 -0.151187E-09 -0.113466E-09 -0.169263E-10  0.642506E-10
   175.762 -0.175002E-09 -0.839500E-10  0.125968E-10  0.522807E-10
   178.792 -0.184318E-09 -0.425698E-10  0.325977E-10  0.324455E-10
   181.822 -0.175487E-09  0.940996E-12  0.402139E-10  0.976622E-11
   184.852 -0.150014E-09  0.365834E-10  0.355988E-10 -0.102204E-10
   187.883 -0.113931E-09  0.565654E-10  0.217074E-10 -0.229318E-10
   190.913 -0.760670E-10  0.571843E-10  0.343008E-11 -0.258865E-10
   193.943 -0.456626E-10  0.396225E-10 -0.137047E-10 -0.192679E-10
   196.973 -0.299749E-10  0.947749E-11 -0.249303E-10 -0.578769E-11
   200.003 -0.324662E-10 -0.248127E-10 -0.273910E-10  0.100925E-10
   203.034 -0.520336E-10 -0.542033E-10 -0.207635E-10  0.233639E-10
   206.064 -0.834298E-10 -0.713378E-10 -0.721504E-11  0.297776E-10
   209.094 -0.118725E-09 -0.723144E-10  0.926568E-11  0.269259E-10
   212.124 -0.149387E-09 -0.574945E-10  0.239707E-10  0.148265E-10
   215.154 -0.168433E-09 -0.311939E-10  0.327149E-10 -0.411427E-11
   218.185 -0.172095E-09 -0.386401E-12  0.328985E-10 -0.257373E-10
   221.215 -0.160595E-09  0.272010E-10  0.241312E-10 -0.451840E-10
   224.245 -0.137888E-09  0.450855E-10  0.827699E-11 -0.580925E-10
   227.275 -0.110484E-09  0.496106E-10 -0.110680E-10 -0.616370E-10
   230.305 -0.856806E-10  0.407288E-10 -0.295126E-10 -0.551583E-10
   233.336 -0.697078E-10  0.218359E-10 -0.429735E-10 -0.402482E-10
   236.366 -0.662253E-10 -0.125312E-11 -0.486627E-10 -0.202872E-10
   239.396 -0.755484E-10 -0.218794E-10 -0.457224E-10  0.428445E-12
   242.426 -0.947432E-10 -0.342415E-10 -0.353600E-10  0.177401E-10
   245.456 -0.118518E-09 -0.347933E-10 -0.204769E-10  0.285991E-10
   248.487 -0.140643E-09 -0.230081E-10 -0.489763E-11  0.317237E-10
   251.517 -0.155519E-09 -0.135997E-11  0.759242E-11  0.277980E-10
   254.547 -0.159496E-09  0.254258E-10  0.141603E-10  0.191868E-10
   257.577 -0.151643E-09  0.516229E-10  0.135687E-10  0.925816E-11
   260.607 -0.133817E-09  0.719213E-10  0.640610E-11  0.149601E-11
   263.638 -0.110064E-09  0.826610E-10 -0.513420E-11 -0.137204E-11
   266.668 -0.855302E-10  0.825966E-10 -0.178534E-10  0.197833E-11
   269.698 -0.651897E-10  0.730462E-10 -0.283646E-10  0.111909E-10
   272.728 -0.526893E-10  0.574299E-10 -0.339232E-10  0.243737E-10
   275.758 -0.495798E-10  0.403490E-10 -0.330711E-10  0.386110E-10
   278.789 -0.550778E-10  0.264489E-10 -0.259484E-10  0.507063E-10
   281.819 -0.663825E-10  0.193434E-10 -0.142118E-10  0.579699E-10
   284.849 -0.794322E-10  0.208389E-10 -0.594734E-12  0.588602E-10
   287.879 -0.899048E-10  0.306150E-10  0.117758E-10  0.533329E-10
   290.909 -0.942168E-10  0.464004E-10  0.201352E-10  0.428266E-10
   293.940 -0.903060E-10  0.645744E-10  0.227294E-10  0.298978E-10
   296.970 -0.780353E-10  0.810377E-10  0.192105E-10  0.176017E-10
   300.000 -0.295769E-10  0.460715E-10  0.534573E-11  0.438596E-11

         1   # Prop. dir.: 1 forw; 2 backw
         8   # Sector #
     0.980   # Range in km 
 Depth (m)         Re(u)         Im(u)         Re(w)         Im(w)
     0.010 -0.390577E-13  0.338859E-13   0.00000       0.00000    
     3.040 -0.236793E-10  0.205735E-10   0.00000       0.00000    
     6.070 -0.468893E-10  0.408704E-10   0.00000       0.00000    
     9.101 -0.693300E-10  0.607524E-10   0.00000       0.00000    
    12.131 -0.906455E-10  0.800172E-10   0.00000       0.00000    
    15.161 -0.110512E-09  0.984695E-10   0.00000       0.00000    
    18.191 -0.128648E-09  0.115922E-09   0.00000       0.00000    
    21.221 -0.144820E-09  0.132201E-09   0.00000       0.00000    
    24.252 -0.158849E-09  0.147147E-09   0.00000       0.00000    
    27.282 -0.170615E-09  0.160620E-09   0.00000       0.00000    
    30.312 -0.180058E-09  0.172502E-09   0.00000       0.00000    
    33.342 -0.187178E-09  0.182704E-09   0.00000       0.00000    
    36.372 -0.192032E-09  0.191161E-09   0.00000       0.00000    
    39.403 -0.194733E-09  0.197844E-09   0.00000       0.00000    
    42.433 -0.195442E-09  0.202757E-09   0.00000       0.00000    
    45.463 -0.194364E-09  0.205936E-09   0.00000       0.00000    
    48.493 -0.191739E-09  0.207453E-09   0.00000       0.00000    
    51.523 -0.187837E-09  0.207410E-09   0.00000       0.00000    
    54.554 -0.182945E-09  0.205937E-09   0.00000       0.00000    
    57.584 -0.177364E-09  0.203191E-09   0.00000       0.00000    
    60.614 -0.171396E-09  0.199347E-09   0.00000       0.00000    
    63.644 -0.165343E-09  0.194591E-09   0.00000       0.00000    
    66.674 -0.159493E-09  0.189122E-09   0.00000       0.00000    
    69.705 -0.154117E-09  0.183135E-09   0.00000       0.00000    
    72.735 -0.149463E-09  0.176822E-09   0.00000       0.00000    
    75.765 -0.145749E-09  0.170366E-09   0.00000       0.00000    
    78.795 -0.143160E-09  0.163934E-09   0.00000       0.00000    
    81.825 -0.141843E-09  0.157674E-09   0.00000       0.00000    
    84.856 -0.141902E-09  0.151715E-09   0.00000       0.00000    
    87.886 -0.143399E-09  0.146160E-09   0.00000       0.00000    
    90.916 -0.146349E-09  0.141095E-09   0.00000       0.00000    
    93.946 -0.150717E-09  0.136580E-09   0.00000       0.00000    
    96.976 -0.156420E-09  0.132656E-09   0.00000       0.00000    
   100.007 -0.163325E-09  0.129347E-09   0.00000       0.00000    
   103.037 -0.171252E-09  0.126658E-09   0.00000       0.00000    
   106.067 -0.179972E-09  0.124582E-09   0.00000       0.00000    
   109.097 -0.189218E-09  0.123099E-09   0.00000       0.00000    
   112.127 -0.198678E-09  0.122176E-09   0.00000       0.00000    
   115.158 -0.208012E-09  0.121773E-09   0.00000       0.00000    
   118.188 -0.216853E-09  0.121836E-09   0.00000       0.00000    
   121.218 -0.224816E-09  0.122301E-09   0.00000       0.00000    
   124.248 -0.231508E-09  0.123095E-09   0.00000       0.00000    
   127.278 -0.236539E-09  0.124128E-09   0.00000       0.00000    
   130.309 -0.239527E-09  0.125298E-09   0.00000       0.00000    
   133.339 -0.240112E-09  0.126485E-09   0.00000       0.00000    
   136.369 -0.237951E-09  0.127550E-09   0.00000       0.00000    
   139.399 -0.232727E-09  0.128327E-09   0.00000       0.00000    
   142.429 -0.224123E-09  0.128609E-09   0.00000       0.00000    
   145.460 -0.211791E-09  0.128129E-09   0.00000       0.00000    
   148.490 -0.195266E-09  0.126503E-09   0.00000       0.00000    
   151.520 -0.142813E-09  0.964006E-10 -0.585765E-11  0.531240E-11
   154.550 -0.124050E-09  0.939146E-10 -0.674131E-11  0.748856E-11
   157.580 -0.100699E-09  0.892908E-10 -0.757789E-11  0.948765E-11
   160.611 -0.227800E-09  0.102832E-10  0.424655E-10  0.100048E-09
   163.641 -0.245630E-09  0.411056E-10  0.544600E-10  0.734007E-10
   166.671 -0.242263E-09  0.788575E-10  0.560275E-10  0.422836E-10
   169.701 -0.218276E-09  0.114979E-09  0.468825E-10  0.138688E-10
   172.732 -0.178202E-09  0.140400E-09  0.291264E-10 -0.602493E-11
   175.762 -0.130292E-09  0.148479E-09  0.704582E-11 -0.138265E-10
   178.792 -0.848065E-10  0.136984E-09 -0.138934E-10 -0.891926E-11
   181.822 -0.515599E-10  0.108770E-09 -0.284602E-10  0.624771E-11
   184.852 -0.374562E-10  0.710542E-10 -0.330438E-10  0.267653E-10
   187.883 -0.447177E-10  0.335381E-10 -0.266246E-10  0.464774E-10
   190.913 -0.702969E-10  0.586039E-11 -0.110660E-10  0.595099E-10
   193.943 -0.106635E-09 -0.492544E-11  0.934864E-11  0.617348E-10
   196.973 -0.143580E-09  0.380102E-11  0.290172E-10  0.517988E-10
   200.003 -0.170967E-09  0.295401E-10  0.424680E-10  0.314525E-10
   203.034 -0.181193E-09  0.653186E-10  0.457856E-10  0.510363E-11
   206.064 -0.171127E-09  0.101502E-09  0.376392E-10 -0.212982E-10
   209.094 -0.142870E-09  0.128295E-09  0.196514E-10 -0.417554E-10
   212.124 -0.103160E-09  0.138271E-09 -0.398905E-11 -0.517177E-10
   215.154 -0.615989E-10  0.128294E-09 -0.275742E-10 -0.492015E-10
   218.185 -0.281700E-10  0.100306E-09 -0.453110E-10 -0.352539E-10
   221.215 -0.106736E-10  0.608209E-10 -0.527792E-10 -0.136513E-10
   224.245 -0.127594E-10  0.192252E-10 -0.480404E-10  0.100843E-10
   227.275 -0.330448E-10 -0.146344E-10 -0.321196E-10  0.300936E-10
   230.305 -0.655377E-10 -0.329654E-10 -0.873768E-11  0.416500E-10
   233.336 -0.101237E-09 -0.319941E-10  0.166288E-10  0.423211E-10
   236.366 -0.130484E-09 -0.128793E-10  0.381216E-10  0.325284E-10
   239.396 -0.145453E-09  0.186480E-10  0.509539E-10  0.153744E-10
   242.426 -0.142129E-09  0.538094E-10  0.525763E-10 -0.420940E-11
   245.456 -0.121289E-09  0.830637E-10  0.432649E-10 -0.207680E-10
   248.487 -0.882336E-10  0.985542E-10  0.259891E-10 -0.297401E-10
   251.517 -0.513618E-10  0.960919E-10  0.560292E-11 -0.286258E-10
   254.547 -0.199784E-10  0.761730E-10 -0.124282E-10 -0.176092E-10
   257.577 -0.189902E-11  0.437875E-10 -0.234328E-10  0.516194E-12
   260.607 -0.147187E-11  0.708781E-11 -0.247161E-10  0.210906E-10
   263.638 -0.185126E-10 -0.247272E-10 -0.162211E-10  0.388058E-10
   266.668 -0.484092E-10 -0.437555E-10 -0.507546E-12  0.490769E-10
   269.698 -0.833470E-10 -0.453699E-10  0.179371E-10  0.492209E-10
   272.728 -0.114327E-09 -0.293311E-10  0.338726E-10  0.391433E-10
   275.758 -0.133442E-09  0.226099E-12  0.426615E-10  0.213622E-10
   278.789 -0.135846E-09  0.359082E-10  0.414615E-10  0.370633E-12
   281.819 -0.120908E-09  0.689794E-10  0.299554E-10 -0.184971E-10
   284.849 -0.922845E-10  0.915729E-10  0.104372E-10 -0.304016E-10
   287.879 -0.569257E-10  0.986445E-10 -0.127585E-10 -0.322045E-10
   290.909 -0.232583E-10  0.891733E-10 -0.343360E-10 -0.232392E-10
   293.940  0.948253E-12  0.663317E-10 -0.493475E-10 -0.546248E-11
   296.970  0.105179E-10  0.366044E-10 -0.544070E-10  0.170470E-10
   300.000  0.205665E-11  0.404526E-11 -0.242525E-10  0.195554E-10

         1   # Prop. dir.: 1 forw; 2 backw
         9   # Sector #
     1.120   # Range in km 
 Depth (m)         Re(u)         Im(u)         Re(w)         Im(w)
     0.010  0.976142E-14  0.226642E-13   0.00000       0.00000    
     3.040  0.597794E-11  0.137575E-10   0.00000       0.00000    
     6.070  0.121714E-10  0.273371E-10   0.00000       0.00000    
     9.101  0.188262E-10  0.406530E-10   0.00000       0.00000    
    12.131  0.261523E-10  0.535757E-10   0.00000       0.00000    
    15.161  0.343363E-10  0.659784E-10   0.00000       0.00000    
    18.191  0.435342E-10  0.777394E-10   0.00000       0.00000    
    21.221  0.538660E-10  0.887425E-10   0.00000       0.00000    
    24.252  0.654104E-10  0.988804E-10   0.00000       0.00000    
    27.282  0.782006E-10  0.108058E-09   0.00000       0.00000    
    30.312  0.922234E-10  0.116192E-09   0.00000       0.00000    
    33.342  0.107416E-09  0.123219E-09   0.00000       0.00000    
    36.372  0.123668E-09  0.129094E-09   0.00000       0.00000    
    39.403  0.140823E-09  0.133795E-09   0.00000       0.00000    
    42.433  0.158681E-09  0.137325E-09   0.00000       0.00000    
    45.463  0.177004E-09  0.139711E-09   0.00000       0.00000    
    48.493  0.195521E-09  0.141008E-09   0.00000       0.00000    
    51.523  0.213936E-09  0.141298E-09   0.00000       0.00000    
    54.554  0.231934E-09  0.140685E-09   0.00000       0.00000    
    57.584  0.249192E-09  0.139296E-09   0.00000       0.00000    
    60.614  0.265380E-09  0.137276E-09   0.00000       0.00000    
    63.644  0.280185E-09  0.134782E-09   0.00000       0.00000    
    66.674  0.293302E-09  0.131981E-09   0.00000       0.00000    
    69.705  0.304455E-09  0.129040E-09   0.00000       0.00000    
    72.735  0.313399E-09  0.126123E-09   0.00000       0.00000    
    75.765  0.319927E-09  0.123384E-09   0.00000       0.00000    
    78.795  0.323877E-09  0.120959E-09   0.00000       0.00000    
    81.825  0.325135E-09  0.118968E-09   0.00000       0.00000    
    84.856  0.323639E-09  0.117500E-09   0.00000       0.00000    
    87.886  0.319381E-09  0.116618E-09   0.00000       0.00000    
    90.916  0.312406E-09  0.116354E-09   0.00000       0.00000    
    93.946  0.302808E-09  0.116707E-09   0.00000       0.00000    
    96.976  0.290737E-09  0.117646E-09   0.00000       0.00000    
   100.007  0.276385E-09  0.119109E-09   0.00000       0.00000    
   103.037  0.259987E-09  0.121004E-09   0.00000       0.00000    
   106.067  0.241813E-09  0.123216E-09   0.00000       0.00000    
   109.097  0.222164E-09  0.125607E-09   0.00000       0.00000    
   112.127  0.201363E-09  0.128022E-09   0.00000       0.00000    
   115.158  0.179750E-09  0.130292E-09   0.00000       0.00000    
   118.188  0.157672E-09  0.132240E-09   0.00000       0.00000    
   121.218  0.135477E-09  0.133682E-09   0.00000       0.00000    
   124.248  0.113507E-09  0.134432E-09   0.00000       0.00000    
   127.278  0.920942E-10  0.134298E-09   0.00000       0.00000    
   130.309  0.715497E-10  0.133085E-09   0.00000       0.00000    
   133.339  0.521664E-10  0.130586E-09   0.00000       0.00000    
   136.369  0.342182E-10  0.126553E-09   0.00000       0.00000    
   139.399  0.179685E-10  0.120666E-09   0.00000       0.00000    
   142.429  0.369331E-11  0.112444E-09   0.00000       0.00000    
   145.460 -0.127465E-10  0.846265E-10  0.218104E-11  0.163319E-11
   148.490 -0.201759E-10  0.753487E-10  0.273195E-11  0.161925E-11
   151.520 -0.959277E-10  0.157421E-09  0.559091E-10 -0.218294E-10
   154.550 -0.841136E-10  0.172733E-09  0.412958E-10 -0.279703E-10
   157.580 -0.658668E-10  0.173730E-09  0.229058E-10 -0.284847E-10
   160.611 -0.474280E-10  0.162819E-09  0.591780E-11 -0.222795E-10
   163.641 -0.341924E-10  0.143234E-09 -0.597851E-11 -0.103582E-10
   166.671 -0.298247E-10  0.119440E-09 -0.106542E-10  0.473397E-11
   169.701 -0.355951E-10  0.966243E-10 -0.769745E-11  0.196483E-10
   172.732 -0.501911E-10  0.796754E-10  0.158741E-11  0.310825E-10
   175.762 -0.701014E-10  0.720928E-10  0.145036E-10  0.365831E-10
   178.792 -0.905031E-10  0.751717E-10  0.275861E-10  0.351218E-10
   181.822 -0.106445E-09  0.876869E-10  0.374024E-10  0.273221E-10
   184.852 -0.114048E-09  0.106180E-09  0.413471E-10  0.152837E-10
   187.883 -0.111437E-09  0.125775E-09  0.382413E-10  0.205646E-11
   190.913 -0.991743E-10  0.141341E-09  0.285978E-10 -0.910875E-11
   193.943 -0.801106E-10  0.148693E-09  0.144832E-10 -0.155471E-10
   196.973 -0.586752E-10  0.145593E-09 -0.982748E-12 -0.158146E-10
   200.003 -0.397945E-10  0.132251E-09 -0.143742E-10 -0.100187E-10
   203.034 -0.276977E-10  0.111265E-09 -0.227688E-10  0.232803E-12
   206.064 -0.248997E-10  0.869681E-10 -0.244288E-10  0.122492E-10
   209.094 -0.316073E-10  0.643849E-10 -0.191905E-10  0.229329E-10
   212.124 -0.456894E-10  0.480238E-10 -0.847375E-11  0.295495E-10
   215.154 -0.632186E-10  0.408041E-10  0.508796E-11  0.304003E-10
   218.185 -0.794458E-10  0.433805E-10  0.183011E-10  0.252354E-10
   221.215 -0.899699E-10  0.540204E-10  0.281885E-10  0.153055E-10
   224.245 -0.918191E-10  0.690614E-10  0.326978E-10  0.304554E-11
   227.275 -0.841755E-10  0.838345E-10  0.311719E-10 -0.853389E-11
   230.305 -0.685688E-10  0.938251E-10  0.244695E-10 -0.165920E-10
   233.336 -0.484951E-10  0.957870E-10  0.147111E-10 -0.191588E-10
   236.366 -0.285484E-10  0.885370E-10  0.471534E-11 -0.156166E-10
   239.396 -0.132875E-10  0.732341E-10 -0.272609E-11 -0.684688E-11
   242.426 -0.611080E-11  0.530827E-10 -0.555933E-11  0.499465E-11
   245.456 -0.841801E-11  0.325244E-10 -0.298523E-11  0.170169E-10
   248.487 -0.192666E-10  0.161309E-10  0.434451E-11  0.263114E-10
   251.517 -0.356067E-10  0.746081E-11  0.144983E-10  0.306714E-10
   254.547 -0.530376E-10  0.817282E-11  0.247591E-10  0.291353E-10
   257.577 -0.668990E-10  0.176088E-10  0.323176E-10  0.222171E-10
   260.607 -0.734272E-10  0.329544E-10  0.349889E-10  0.117706E-10
   263.638 -0.706904E-10  0.499371E-10  0.317748E-10  0.518938E-12
   266.668 -0.590700E-10  0.638890E-10  0.231296E-10 -0.863167E-11
   269.698 -0.411699E-10  0.709115E-10  0.108610E-10 -0.133236E-10
   272.728 -0.211687E-10  0.688533E-10 -0.230902E-11 -0.123433E-10
   275.758 -0.378186E-11  0.578546E-10 -0.134157E-10 -0.593042E-11
   278.789  0.691459E-11  0.403251E-10 -0.199894E-10  0.427623E-11
   281.819  0.850662E-11  0.203549E-10 -0.206768E-10  0.156443E-10
   284.849  0.854346E-12  0.270577E-11 -0.155883E-10  0.252053E-10
   287.879 -0.138564E-10 -0.837107E-11 -0.628561E-11  0.304030E-10
   290.909 -0.316416E-10 -0.101980E-10  0.459220E-11  0.297462E-10
   293.940 -0.476925E-10 -0.234877E-11  0.139733E-10  0.232043E-10
   296.970 -0.575603E-10  0.132244E-10  0.191124E-10  0.122452E-10
   300.000 -0.291290E-10  0.163253E-10  0.913984E-11 -0.248129E-12

         1   # Prop. dir.: 1 forw; 2 backw
        10   # Sector #
     1.260   # Range in km 
 Depth (m)         Re(u)         Im(u)         Re(w)         Im(w)
     0.010 -0.992478E-14 -0.224383E-13   0.00000       0.00000    
     3.040 -0.599107E-11 -0.136541E-10   0.00000       0.00000    
     6.070 -0.117087E-10 -0.273098E-10   0.00000       0.00000    
     9.101 -0.169257E-10 -0.410579E-10   0.00000       0.00000    
    12.131 -0.214062E-10 -0.549439E-10   0.00000       0.00000    
    15.161 -0.249310E-10 -0.690115E-10   0.00000       0.00000    
    18.191 -0.273033E-10 -0.833016E-10   0.00000       0.00000    
    21.221 -0.283530E-10 -0.978496E-10   0.00000       0.00000    
    24.252 -0.279419E-10 -0.112682E-09   0.00000       0.00000    
    27.282 -0.259680E-10 -0.127815E-09   0.00000       0.00000    
    30.312 -0.223686E-10 -0.143246E-09   0.00000       0.00000    
    33.342 -0.171234E-10 -0.158956E-09   0.00000       0.00000    
    36.372 -0.102561E-10 -0.174901E-09   0.00000       0.00000    
    39.403 -0.183570E-11 -0.191009E-09   0.00000       0.00000    
    42.433  0.802481E-11 -0.207178E-09   0.00000       0.00000    
    45.463  0.191694E-10 -0.223279E-09   0.00000       0.00000    
    48.493  0.314020E-10 -0.239148E-09   0.00000       0.00000    
    51.523  0.444915E-10 -0.254598E-09   0.00000       0.00000    
    54.554  0.581758E-10 -0.269413E-09   0.00000       0.00000    
    57.584  0.721697E-10 -0.283362E-09   0.00000       0.00000    
    60.614  0.861708E-10 -0.296198E-09   0.00000       0.00000    
    63.644  0.998690E-10 -0.307675E-09   0.00000       0.00000    
    66.674  0.112954E-09 -0.317549E-09   0.00000       0.00000    
    69.705  0.125121E-09 -0.325592E-09   0.00000       0.00000    
    72.735  0.136086E-09 -0.331597E-09   0.00000       0.00000    
    75.765  0.145586E-09 -0.335393E-09   0.00000       0.00000    
    78.795  0.153388E-09 -0.336845E-09   0.00000       0.00000    
    81.825  0.159297E-09 -0.335863E-09   0.00000       0.00000    
    84.856  0.163159E-09 -0.332403E-09   0.00000       0.00000    
    87.886  0.164867E-09 -0.326477E-09   0.00000       0.00000    
    90.916  0.164356E-09 -0.318138E-09   0.00000       0.00000    
    93.946  0.161614E-09 -0.307493E-09   0.00000       0.00000    
    96.976  0.156673E-09 -0.294687E-09   0.00000       0.00000    
   100.007  0.149612E-09 -0.279906E-09   0.00000       0.00000    
   103.037  0.140552E-09 -0.263361E-09   0.00000       0.00000    
   106.067  0.129652E-09 -0.245286E-09   0.00000       0.00000    
   109.097  0.117105E-09 -0.225938E-09   0.00000       0.00000    
   112.127  0.103132E-09 -0.205574E-09   0.00000       0.00000    
   115.158  0.879702E-10 -0.184458E-09   0.00000       0.00000    
   118.188  0.718680E-10 -0.162849E-09   0.00000       0.00000    
   121.218  0.550665E-10 -0.141005E-09   0.00000       0.00000    
   124.248  0.377796E-10 -0.119183E-09   0.00000       0.00000    
   127.278  0.201583E-10 -0.976475E-10   0.00000       0.00000    
   130.309  0.222890E-11 -0.766913E-10   0.00000       0.00000    
   133.339 -0.162175E-10 -0.566749E-10   0.00000       0.00000    
   136.369 -0.358287E-10 -0.381054E-10   0.00000       0.00000    
   139.399 -0.388951E-10 -0.998697E-11 -0.369239E-11 -0.184108E-11
   142.429 -0.545372E-10  0.201478E-11 -0.292856E-11 -0.175283E-11
   145.460  0.288204E-10  0.675871E-10 -0.443077E-10 -0.704007E-10
   148.490  0.386293E-10  0.480218E-10 -0.463010E-10 -0.450269E-10
   151.520  0.262254E-10  0.264755E-10 -0.400040E-10 -0.187270E-10
   154.550 -0.876564E-12  0.121276E-10 -0.260304E-10  0.162370E-11
   157.580 -0.345658E-10  0.107839E-10 -0.760640E-11  0.123706E-10
   160.611 -0.664270E-10  0.241872E-10  0.107741E-10  0.127467E-10
   163.641 -0.890487E-10  0.499795E-10  0.246956E-10  0.454484E-11
   166.671 -0.975184E-10  0.825172E-10  0.309959E-10 -0.853195E-11
   169.701 -0.904879E-10  0.114416E-09  0.285455E-10 -0.218571E-10
   172.732 -0.704275E-10  0.138469E-09  0.184806E-10 -0.310365E-10
   175.762 -0.429523E-10  0.149482E-09  0.385390E-11 -0.329814E-10
   178.792 -0.153770E-10  0.145550E-09 -0.111924E-10 -0.266389E-10
   181.822  0.513827E-11  0.128489E-09 -0.225111E-10 -0.132094E-10
   184.852  0.133833E-10  0.103306E-09 -0.270132E-10  0.420248E-11
   187.883  0.737865E-11  0.768741E-10 -0.234411E-10  0.214064E-10
   190.913 -0.111753E-10  0.561477E-10 -0.126609E-10  0.342058E-10
   193.943 -0.373842E-10  0.463903E-10  0.259352E-11  0.394649E-10
   196.973 -0.644465E-10  0.498630E-10  0.184487E-10  0.358946E-10
   200.003 -0.854018E-10  0.652992E-10  0.309006E-10  0.243658E-10
   203.034 -0.948955E-10  0.882896E-10  0.368432E-10  0.767725E-11
   206.064 -0.905067E-10  0.112465E-09  0.348541E-10 -0.101550E-10
   209.094 -0.733144E-10  0.131158E-09  0.255424E-10 -0.249030E-10
   212.124 -0.475696E-10  0.139123E-09  0.113751E-10 -0.331684E-10
   215.154 -0.195694E-10  0.133855E-09 -0.396643E-11 -0.332004E-10
   218.185  0.396552E-11  0.116210E-09 -0.165287E-10 -0.252891E-10
   221.215  0.175911E-10  0.901340E-10 -0.230867E-10 -0.116431E-10
   224.245  0.184872E-10  0.616360E-10 -0.219464E-10  0.420716E-11
   227.275  0.711572E-11  0.372356E-10 -0.133522E-10  0.183229E-10
   230.305 -0.129633E-10  0.223128E-10  0.601119E-12  0.273506E-10
   233.336 -0.360536E-10  0.197718E-10  0.165181E-10  0.293450E-10
   236.366 -0.558066E-10  0.293534E-10  0.305726E-10  0.242196E-10
   239.396 -0.668385E-10  0.477572E-10  0.394702E-10  0.137173E-10
   242.426 -0.660716E-10  0.695283E-10  0.412624E-10  0.920111E-12
   245.456 -0.534654E-10  0.884693E-10  0.358096E-10 -0.105700E-10
   248.487 -0.319675E-10  0.992122E-10  0.247811E-10 -0.175655E-10
   251.517 -0.671383E-11  0.985453E-10  0.112036E-10 -0.181050E-10
   254.547  0.163075E-10  0.861776E-10 -0.132434E-11 -0.119411E-10
   257.577  0.317734E-10  0.647495E-10 -0.954738E-11 -0.585440E-12
   260.607  0.363442E-10  0.391117E-10 -0.113669E-10  0.130904E-10
   263.638  0.294558E-10  0.150648E-10 -0.635280E-11  0.255931E-10
   266.668  0.133978E-10 -0.210390E-11  0.416960E-11  0.336904E-10
   269.698 -0.732242E-11 -0.892455E-11  0.174709E-10  0.352208E-10
   272.728 -0.271541E-10 -0.456246E-11  0.301130E-10  0.296244E-10
   275.758 -0.409057E-10  0.904086E-11  0.388058E-10  0.180733E-10
   278.789 -0.450251E-10  0.277178E-10  0.412178E-10  0.317221E-11
   281.819 -0.384380E-10  0.461637E-10  0.365348E-10 -0.116849E-10
   284.849 -0.227502E-10  0.592747E-10  0.256400E-10 -0.231399E-10
   287.879 -0.178527E-11  0.633997E-10  0.108780E-10 -0.286715E-10
   290.909  0.194150E-10  0.571981E-10 -0.452858E-11 -0.271776E-10
   293.940  0.358542E-10  0.419012E-10 -0.172598E-10 -0.192023E-10
   296.970  0.437981E-10  0.209396E-10 -0.246824E-10 -0.676636E-11
   300.000  0.208206E-10 -0.479729E-12 -0.127248E-10  0.357602E-11

         1   # Prop. dir.: 1 forw; 2 backw
        11   # Sector #
     1.400   # Range in km 
 Depth (m)         Re(u)         Im(u)         Re(w)         Im(w)
     0.010 -0.545570E-13  0.114468E-13   0.00000       0.00000    
     3.040 -0.331062E-10  0.693051E-11   0.00000       0.00000    
     6.070 -0.656974E-10  0.136382E-10   0.00000       0.00000    
     9.101 -0.974873E-10  0.199512E-10   0.00000       0.00000    
    12.131 -0.128098E-09  0.256826E-10   0.00000       0.00000    
    15.161 -0.157178E-09  0.306586E-10   0.00000       0.00000    
    18.191 -0.184410E-09  0.347212E-10   0.00000       0.00000    
    21.221 -0.209514E-09  0.377325E-10   0.00000       0.00000    
    24.252 -0.232258E-09  0.395780E-10   0.00000       0.00000    
    27.282 -0.252460E-09  0.401693E-10   0.00000       0.00000    
    30.312 -0.269989E-09  0.394470E-10   0.00000       0.00000    
    33.342 -0.284769E-09  0.373825E-10   0.00000       0.00000    
    36.372 -0.296774E-09  0.339797E-10   0.00000       0.00000    
    39.403 -0.306036E-09  0.292760E-10   0.00000       0.00000    
    42.433 -0.312631E-09  0.233417E-10   0.00000       0.00000    
    45.463 -0.316679E-09  0.162805E-10   0.00000       0.00000    
    48.493 -0.318341E-09  0.822751E-11   0.00000       0.00000    
    51.523 -0.317811E-09 -0.652892E-12   0.00000       0.00000    
    54.554 -0.315304E-09 -0.101701E-10   0.00000       0.00000    
    57.584 -0.311057E-09 -0.201110E-10   0.00000       0.00000    
    60.614 -0.305315E-09 -0.302448E-10   0.00000       0.00000    
    63.644 -0.298326E-09 -0.403283E-10   0.00000       0.00000    
    66.674 -0.290334E-09 -0.501118E-10   0.00000       0.00000    
    69.705 -0.281573E-09 -0.593456E-10   0.00000       0.00000    
    72.735 -0.272259E-09 -0.677868E-10   0.00000       0.00000    
    75.765 -0.262587E-09 -0.752056E-10   0.00000       0.00000    
    78.795 -0.252729E-09 -0.813922E-10   0.00000       0.00000    
    81.825 -0.242831E-09 -0.861622E-10   0.00000       0.00000    
    84.856 -0.233008E-09 -0.893639E-10   0.00000       0.00000    
    87.886 -0.223350E-09 -0.908802E-10   0.00000       0.00000    
    90.916 -0.213916E-09 -0.906345E-10   0.00000       0.00000    
    93.946 -0.204742E-09 -0.885915E-10   0.00000       0.00000    
    96.976 -0.195836E-09 -0.847587E-10   0.00000       0.00000    
   100.007 -0.187186E-09 -0.791850E-10   0.00000       0.00000    
   103.037 -0.178762E-09 -0.719582E-10   0.00000       0.00000    
   106.067 -0.170514E-09 -0.632021E-10   0.00000       0.00000    
   109.097 -0.162384E-09 -0.530677E-10   0.00000       0.00000    
   112.127 -0.154304E-09 -0.417256E-10   0.00000       0.00000    
   115.158 -0.146205E-09 -0.293517E-10   0.00000       0.00000    
   118.188 -0.138022E-09 -0.161054E-10   0.00000       0.00000    
   121.218 -0.129718E-09 -0.209708E-11   0.00000       0.00000    
   124.248 -0.121302E-09  0.126692E-10   0.00000       0.00000    
   127.278 -0.112884E-09  0.283966E-10   0.00000       0.00000    
   130.309 -0.779802E-10  0.317710E-10 -0.871242E-11  0.279035E-11
   133.339 -0.713685E-10  0.447436E-10 -0.741990E-11  0.347134E-11
   136.369 -0.652535E-10  0.594492E-10 -0.590289E-11  0.409983E-11
   139.399 -0.487785E-10 -0.743347E-11 -0.557337E-10  0.261602E-10
   142.429 -0.660223E-10 -0.119775E-10 -0.334323E-10  0.265114E-10
   145.460 -0.849977E-10 -0.444634E-14 -0.115243E-10  0.203930E-10
   148.490 -0.985151E-10  0.237792E-10  0.492502E-11  0.858673E-11
   151.520 -0.101826E-09  0.534841E-10  0.130630E-10 -0.613351E-11
   154.550 -0.932766E-10  0.824661E-10  0.122617E-10 -0.200502E-10
   157.580 -0.744745E-10  0.104506E-09  0.400429E-11 -0.295826E-10
   160.611 -0.497711E-10  0.115156E-09 -0.857300E-11 -0.322441E-10
   163.641 -0.251136E-10  0.112780E-09 -0.214766E-10 -0.272873E-10
   166.671 -0.651195E-11  0.989480E-10 -0.308387E-10 -0.158997E-10
   169.701  0.150935E-11  0.780551E-10 -0.338645E-10 -0.903810E-12
   172.732 -0.290778E-11  0.562290E-10 -0.295102E-10  0.139578E-10
   175.762 -0.184448E-10  0.397888E-10 -0.187248E-10  0.249750E-10
   178.792 -0.409026E-10  0.336465E-10 -0.419033E-11  0.294188E-10
   181.822 -0.642360E-10  0.400473E-10  0.103766E-10  0.262456E-10
   184.852 -0.820740E-10  0.579758E-10  0.211853E-10  0.163752E-10
   187.883 -0.893398E-10  0.833874E-10  0.253550E-10  0.247023E-11
   190.913 -0.835605E-10  0.110210E-09  0.216696E-10 -0.117331E-10
   193.943 -0.655279E-10  0.131876E-09  0.109104E-10 -0.223726E-10
   196.973 -0.391323E-10  0.142986E-09 -0.431808E-11 -0.264494E-10
   200.003 -0.104035E-10  0.140700E-09 -0.202307E-10 -0.226039E-10
   203.034  0.140008E-10  0.125479E-09 -0.328083E-10 -0.114814E-10
   206.064  0.284853E-10  0.100994E-09 -0.388123E-10  0.441143E-11
   209.094  0.299474E-10  0.732122E-10 -0.366042E-10  0.213242E-10
   212.124  0.185843E-10  0.488954E-10 -0.265668E-10  0.352013E-10
   215.154 -0.214087E-11  0.338782E-10 -0.110102E-10  0.427042E-10
   218.185 -0.263666E-10  0.315803E-10  0.640714E-11  0.420566E-10
   221.215 -0.473233E-10  0.421258E-10  0.216028E-10  0.334957E-10
   224.245 -0.590643E-10  0.623052E-10  0.311002E-10  0.192158E-10
   227.275 -0.579972E-10  0.863931E-10  0.329062E-10  0.281338E-11
   230.305 -0.438170E-10  0.107617E-09  0.270059E-10 -0.116246E-10
   233.336 -0.195999E-10  0.119900E-09  0.153550E-10 -0.205566E-10
   236.366  0.897471E-11  0.119433E-09  0.136549E-11 -0.218841E-10
   239.396  0.350738E-10  0.105669E-09 -0.109799E-10 -0.154799E-10
   242.426  0.524638E-10  0.814721E-10 -0.181596E-10 -0.321309E-11
   245.456  0.571173E-10  0.523959E-10 -0.180254E-10  0.115374E-10
   248.487  0.482532E-10  0.252558E-10 -0.103612E-10  0.247549E-10
   251.517  0.285450E-10  0.637755E-11  0.305588E-11  0.328195E-10
   254.547  0.343594E-11 -0.371397E-13  0.189072E-10  0.334415E-10
   257.577 -0.202592E-10  0.700274E-11  0.331829E-10  0.262531E-10
   260.607 -0.361094E-10  0.250163E-10  0.422106E-10  0.129066E-10
   263.638 -0.397271E-10  0.486869E-10  0.436023E-10 -0.334384E-11
   266.668 -0.298992E-10  0.712286E-10  0.368730E-10 -0.184719E-10
   269.698 -0.890145E-11  0.861341E-10  0.235748E-10 -0.287064E-10
   272.728  0.180856E-10  0.888506E-10  0.691280E-11 -0.314951E-10
   275.758  0.443078E-10  0.779500E-10 -0.906161E-11 -0.261569E-10
   278.789  0.631716E-10  0.554977E-10 -0.204714E-10 -0.140591E-10
   281.819  0.699326E-10  0.265198E-10 -0.245914E-10  0.172554E-11
   284.849  0.629031E-10 -0.228325E-11 -0.205327E-10  0.171930E-10
   287.879  0.438743E-10 -0.242475E-10 -0.946323E-11  0.284169E-10
   290.909  0.176459E-10 -0.344385E-10  0.569007E-11  0.325349E-10
   293.940 -0.920841E-11 -0.308895E-10  0.209789E-10  0.284647E-10
   296.970 -0.300161E-10 -0.150778E-10  0.324240E-10  0.171705E-10
   300.000 -0.198458E-10  0.424118E-11  0.185044E-10  0.708477E-12

         1   # Prop. dir.: 1 forw; 2 backw
        12   # Sector #
     1.540   # Range in km 
 Depth (m)         Re(u)         Im(u)         Re(w)         Im(w)
     0.010 -0.111764E-13  0.536616E-13   0.00000       0.00000    
     3.040 -0.675874E-11  0.325700E-10   0.00000       0.00000    
     6.070 -0.132950E-10  0.646777E-10   0.00000       0.00000    
     9.101 -0.194371E-10  0.960829E-10   0.00000       0.00000    
    12.131 -0.250015E-10  0.126451E-09   0.00000       0.00000    
    15.161 -0.298202E-10  0.155464E-09   0.00000       0.00000    
    18.191 -0.337451E-10  0.182829E-09   0.00000       0.00000    
    21.221 -0.366522E-10  0.208282E-09   0.00000       0.00000    
    24.252 -0.384452E-10  0.231591E-09   0.00000       0.00000    
    27.282 -0.390574E-10  0.252562E-09   0.00000       0.00000    
    30.312 -0.384547E-10  0.271041E-09   0.00000       0.00000    
    33.342 -0.366355E-10  0.286912E-09   0.00000       0.00000    
    36.372 -0.336313E-10  0.300109E-09   0.00000       0.00000    
    39.403 -0.295062E-10  0.310604E-09   0.00000       0.00000    
    42.433 -0.243540E-10  0.318414E-09   0.00000       0.00000    
    45.463 -0.182971E-10  0.323593E-09   0.00000       0.00000    
    48.493 -0.114814E-10  0.326237E-09   0.00000       0.00000    
    51.523 -0.407339E-11  0.326474E-09   0.00000       0.00000    
    54.554  0.374524E-11  0.324462E-09   0.00000       0.00000    
    57.584  0.117827E-10  0.320384E-09   0.00000       0.00000    
    60.614  0.198423E-10  0.314443E-09   0.00000       0.00000    
    63.644  0.277286E-10  0.306855E-09   0.00000       0.00000    
    66.674  0.352522E-10  0.297844E-09   0.00000       0.00000    
    69.705  0.422357E-10  0.287635E-09   0.00000       0.00000    
    72.735  0.485182E-10  0.276451E-09   0.00000       0.00000    
    75.765  0.539596E-10  0.264508E-09   0.00000       0.00000    
    78.795  0.584447E-10  0.252008E-09   0.00000       0.00000    
    81.825  0.618860E-10  0.239138E-09   0.00000       0.00000    
    84.856  0.642258E-10  0.226063E-09   0.00000       0.00000    
    87.886  0.654377E-10  0.212930E-09   0.00000       0.00000    
    90.916  0.655269E-10  0.199862E-09   0.00000       0.00000    
    93.946  0.645309E-10  0.186959E-09   0.00000       0.00000    
    96.976  0.625183E-10  0.174297E-09   0.00000       0.00000    
   100.007  0.595868E-10  0.161931E-09   0.00000       0.00000    
   103.037  0.558648E-10  0.149898E-09   0.00000       0.00000    
   106.067  0.515096E-10  0.138216E-09   0.00000       0.00000    
   109.097  0.467116E-10  0.126896E-09   0.00000       0.00000    
   112.127  0.417028E-10  0.115948E-09   0.00000       0.00000    
   115.158  0.367768E-10  0.105401E-09   0.00000       0.00000    
   118.188  0.323313E-10  0.953353E-10   0.00000       0.00000    
   121.218  0.289511E-10  0.859394E-10   0.00000       0.00000    
   124.248  0.152081E-10  0.569527E-10 -0.738284E-14  0.137224E-11
   127.278  0.141969E-10  0.509053E-10  0.785192E-12  0.161751E-11
   130.309 -0.376178E-10  0.941390E-10  0.179558E-10  0.851632E-11
   133.339 -0.397712E-10  0.973462E-10  0.103182E-10 -0.855463E-12
   136.369 -0.313138E-10  0.994004E-10  0.123147E-11 -0.906089E-11
   139.399 -0.190791E-10  0.966815E-10 -0.861407E-11 -0.128902E-10
   142.429 -0.813814E-11  0.885279E-10 -0.174042E-10 -0.116241E-10
   145.460 -0.190439E-11  0.764374E-10 -0.232615E-10 -0.622875E-11
   148.490 -0.200732E-11  0.631991E-10 -0.249433E-10  0.133210E-11
   151.520 -0.827110E-11  0.519735E-10 -0.222094E-10  0.873994E-11
   154.550 -0.189684E-10  0.454336E-10 -0.158731E-10  0.139187E-10
   157.580 -0.313511E-10  0.451180E-10 -0.757459E-11  0.155098E-10
   160.611 -0.423550E-10  0.511059E-10  0.637468E-12  0.131478E-10
   163.641 -0.493266E-10  0.620578E-10  0.680385E-11  0.749327E-11
   166.671 -0.506094E-10  0.755825E-10  0.951137E-11  0.302526E-13
   169.701 -0.458707E-10  0.888248E-10  0.820379E-11 -0.731499E-11
   172.732 -0.361121E-10  0.991212E-10  0.328356E-11 -0.126399E-10
   175.762 -0.233802E-10  0.104577E-09 -0.400977E-11 -0.145090E-10
   178.792 -0.102666E-10  0.104438E-09 -0.119076E-10 -0.122749E-10
   181.822  0.685857E-12  0.991851E-10 -0.185287E-10 -0.621223E-11
   184.852  0.752962E-11  0.903597E-10 -0.223066E-10  0.256041E-11
   187.883  0.930037E-11  0.801662E-10 -0.223330E-10  0.123434E-10
   190.913  0.617186E-11  0.709576E-10 -0.185410E-10  0.212402E-10
   193.943 -0.638795E-12  0.647183E-10 -0.116974E-10  0.275747E-10
   196.973 -0.918070E-11  0.626559E-10 -0.320865E-11  0.302472E-10
   200.003 -0.172165E-10  0.649765E-10  0.520935E-11  0.289567E-10
   203.034 -0.227077E-10  0.708828E-10  0.119198E-10  0.242406E-10
   206.064 -0.242379E-10  0.787845E-10  0.157272E-10  0.173313E-10
   209.094 -0.212903E-10  0.866610E-10  0.161309E-10  0.986558E-11
   212.124 -0.143314E-10  0.925097E-10  0.134195E-10  0.351051E-11
   215.154 -0.468896E-11  0.947723E-10  0.858639E-11 -0.407004E-12
   218.185  0.574586E-11  0.926665E-10  0.308780E-11 -0.118746E-11
   221.215  0.149285E-10  0.863505E-10 -0.150001E-11  0.109918E-11
   224.245  0.211013E-10  0.768880E-10 -0.384760E-11  0.564706E-11
   227.275  0.231745E-10  0.660269E-10 -0.318122E-11  0.111149E-10
   230.305  0.209688E-10  0.558262E-10  0.536432E-12  0.159475E-10
   233.336  0.152684E-10  0.482116E-10  0.659472E-11  0.187460E-10
   236.366  0.766653E-11  0.445484E-10  0.136968E-10  0.186029E-10
   239.396  0.230384E-12  0.453228E-10  0.202597E-10  0.153248E-10
   242.426 -0.494972E-11  0.500071E-10  0.247855E-10  0.949098E-11
   245.456 -0.623458E-11  0.571430E-10  0.262196E-10  0.233012E-11
   248.487 -0.282835E-11  0.646403E-10  0.242129E-10 -0.455904E-11
   251.517  0.500227E-11  0.702298E-10  0.192229E-10 -0.958110E-11
   254.547  0.159427E-10  0.719826E-10  0.124283E-10 -0.115274E-10
   257.577  0.278886E-10  0.687719E-10  0.546930E-11 -0.987834E-11
   260.607  0.384004E-10  0.605761E-10  0.716431E-13 -0.495213E-11
   263.638  0.452619E-10  0.485326E-10 -0.236257E-11  0.214161E-11
   266.668  0.470134E-10  0.347225E-10 -0.109914E-11  0.973765E-11
   269.698  0.433311E-10  0.217175E-10  0.373049E-11  0.159912E-10
   272.728  0.351534E-10  0.119865E-10  0.111319E-10  0.193100E-10
   275.758  0.245092E-10  0.729865E-11  0.194556E-10  0.187400E-10
   278.789  0.140718E-10  0.826517E-11  0.267678E-10  0.142128E-10
   281.819  0.653497E-11  0.141436E-10  0.313021E-10  0.658963E-11
   284.849  0.395596E-11  0.229631E-10  0.318838E-10 -0.251377E-11
   287.879  0.722389E-11  0.319575E-10  0.282289E-10 -0.110884E-10
   290.909  0.157931E-10  0.382129E-10  0.210366E-10 -0.171968E-10
   293.940  0.277585E-10  0.393790E-10  0.118540E-10 -0.194343E-10
   296.970  0.402696E-10  0.342703E-10  0.273187E-11 -0.172757E-10
   300.000  0.250970E-10  0.116011E-10 -0.212378E-11 -0.561123E-11

         1   # Prop. dir.: 1 forw; 2 backw
        13   # Sector #
     1.680   # Range in km 
 Depth (m)         Re(u)         Im(u)         Re(w)         Im(w)
     0.010  0.280028E-13  0.646149E-14   0.00000       0.00000    
     3.040  0.170391E-10  0.390816E-11   0.00000       0.00000    
     6.070  0.340869E-10  0.768881E-11   0.00000       0.00000    
     9.101  0.512567E-10  0.112413E-10   0.00000       0.00000    
    12.131  0.685924E-10  0.144534E-10   0.00000       0.00000    
    15.161  0.861191E-10  0.172155E-10   0.00000       0.00000    
    18.191  0.103836E-09  0.194214E-10   0.00000       0.00000    
    21.221  0.121717E-09  0.209707E-10   0.00000       0.00000    
    24.252  0.139704E-09  0.217700E-10   0.00000       0.00000    
    27.282  0.157708E-09  0.217356E-10   0.00000       0.00000    
    30.312  0.175613E-09  0.207965E-10   0.00000       0.00000    
    33.342  0.193274E-09  0.188966E-10   0.00000       0.00000    
    36.372  0.210522E-09  0.159980E-10   0.00000       0.00000    
    39.403  0.227171E-09  0.120832E-10   0.00000       0.00000    
    42.433  0.243020E-09  0.715813E-11   0.00000       0.00000    
    45.463  0.257862E-09  0.125373E-11   0.00000       0.00000    
    48.493  0.271489E-09 -0.557295E-11   0.00000       0.00000    
    51.523  0.283697E-09 -0.132378E-10   0.00000       0.00000    
    54.554  0.294296E-09 -0.216302E-10   0.00000       0.00000    
    57.584  0.303108E-09 -0.306151E-10   0.00000       0.00000    
    60.614  0.309981E-09 -0.400336E-10   0.00000       0.00000    
    63.644  0.314783E-09 -0.497086E-10   0.00000       0.00000    
    66.674  0.317412E-09 -0.594472E-10   0.00000       0.00000    
    69.705  0.317796E-09 -0.690461E-10   0.00000       0.00000    
    72.735  0.315888E-09 -0.782975E-10   0.00000       0.00000    
    75.765  0.311677E-09 -0.869952E-10   0.00000       0.00000    
    78.795  0.305178E-09 -0.949398E-10   0.00000       0.00000    
    81.825  0.296436E-09 -0.101945E-09   0.00000       0.00000    
    84.856  0.285523E-09 -0.107845E-09   0.00000       0.00000    
    87.886  0.272536E-09 -0.112499E-09   0.00000       0.00000    
    90.916  0.257599E-09 -0.115793E-09   0.00000       0.00000    
    93.946  0.240850E-09 -0.117652E-09   0.00000       0.00000    
    96.976  0.222452E-09 -0.118036E-09   0.00000       0.00000    
   100.007  0.202582E-09 -0.116952E-09   0.00000       0.00000    
   103.037  0.181432E-09 -0.114461E-09   0.00000       0.00000    
   106.067  0.159199E-09 -0.110689E-09   0.00000       0.00000    
   109.097  0.136083E-09 -0.105859E-09   0.00000       0.00000    
   112.127  0.112272E-09 -0.100336E-09   0.00000       0.00000    
   115.158  0.879253E-10 -0.947291E-10   0.00000       0.00000    
   118.188  0.473281E-10 -0.645922E-10 -0.315127E-11 -0.791173E-11
   121.218  0.283589E-10 -0.598214E-10 -0.281831E-11 -0.776217E-11
   124.248  0.994104E-10  0.474928E-10 -0.227038E-10 -0.768697E-10
   127.278  0.114557E-09  0.298891E-10 -0.395872E-10 -0.567539E-10
   130.309  0.112897E-09 -0.352426E-12 -0.477347E-10 -0.318357E-10
   133.339  0.933713E-10 -0.309241E-10 -0.445440E-10 -0.775167E-11
   136.369  0.594623E-10 -0.515582E-10 -0.313097E-10  0.102897E-10
   139.399  0.183789E-10 -0.556172E-10 -0.121268E-10  0.187115E-10
   142.429 -0.208110E-10 -0.412330E-10  0.749129E-11  0.164160E-10
   145.460 -0.495246E-10 -0.114567E-10  0.221416E-10  0.500962E-11
   148.490 -0.618571E-10  0.267274E-10  0.279224E-10 -0.116552E-10
   151.520 -0.560439E-10  0.643079E-10  0.233800E-10 -0.285018E-10
   154.550 -0.348340E-10  0.925963E-10  0.980660E-11 -0.405437E-10
   157.580 -0.470001E-11  0.105429E-09 -0.916343E-11 -0.441522E-10
   160.611  0.258853E-10  0.100665E-09 -0.285379E-10 -0.379543E-10
   163.641  0.486420E-10  0.806308E-10 -0.432681E-10 -0.231403E-10
   166.671  0.575772E-10  0.514150E-10 -0.495319E-10 -0.311405E-11
   169.701  0.504447E-10  0.212341E-10 -0.456760E-10  0.174101E-10
   172.732  0.292176E-10 -0.169660E-11 -0.325895E-10  0.336246E-10
   175.762 -0.522563E-12 -0.112339E-10 -0.134278E-10  0.418450E-10
   178.792 -0.310960E-10 -0.479426E-11  0.722306E-11  0.404164E-10
   181.822 -0.547274E-10  0.160991E-10  0.245205E-10  0.300914E-10
   184.852 -0.655173E-10  0.463193E-10  0.345717E-10  0.137925E-10
   187.883 -0.608891E-10  0.785329E-10  0.353702E-10 -0.416304E-11
   190.913 -0.421531E-10  0.105108E-09  0.272351E-10 -0.191702E-10
   193.943 -0.140769E-10  0.120035E-09  0.126581E-10 -0.274879E-10
   196.973  0.164043E-10  0.120384E-09 -0.438491E-11 -0.271472E-10
   200.003  0.419851E-10  0.106928E-09 -0.194713E-10 -0.183930E-10
   203.034  0.568253E-10  0.838259E-10 -0.288441E-10 -0.356329E-11
   206.064  0.579640E-10  0.574601E-10 -0.303220E-10  0.135496E-10
   209.094  0.459649E-10  0.347526E-10 -0.237845E-10  0.286805E-10
   212.124  0.246606E-10  0.214069E-10 -0.111238E-10  0.381610E-10
   215.154  0.860167E-13  0.205150E-10  0.430387E-11  0.398090E-10
   218.185 -0.211043E-10  0.318692E-10  0.185769E-10  0.334212E-10
   221.215 -0.333189E-10  0.521274E-10  0.282163E-10  0.207580E-10
   224.245 -0.333906E-10  0.757572E-10  0.310493E-10  0.504238E-11
   227.275 -0.212844E-10  0.965019E-10  0.267153E-10 -0.988898E-11
   230.305 -0.405141E-15  0.108972E-09  0.166975E-10 -0.205573E-10
   233.336  0.252772E-10  0.109970E-09  0.389170E-11 -0.246916E-10
   236.366  0.485449E-10  0.992151E-10 -0.816963E-11 -0.217489E-10
   239.396  0.644993E-10  0.793196E-10 -0.162290E-10 -0.129867E-10
   242.426  0.698253E-10  0.550424E-10 -0.181200E-10 -0.108393E-11
   245.456  0.639481E-10  0.320318E-10 -0.132870E-10  0.105793E-10
   248.487  0.490685E-10  0.153954E-10 -0.288722E-11  0.187925E-10
   251.517  0.295158E-10  0.845372E-11  0.105375E-10  0.213157E-10
   254.547  0.105917E-10  0.119821E-10  0.237238E-10  0.174118E-10
   257.577 -0.277989E-11  0.241133E-10  0.335102E-10  0.799056E-11
   260.607 -0.726067E-11  0.408957E-10  0.376120E-10 -0.466165E-11
   263.638 -0.186671E-11  0.573472E-10  0.351586E-10 -0.174836E-10
   266.668  0.118744E-10  0.687233E-10  0.268675E-10 -0.274126E-10
   269.698  0.303903E-10  0.716802E-10  0.148266E-10 -0.321353E-10
   272.728  0.490188E-10  0.650449E-10  0.194878E-11 -0.306298E-10
   275.758  0.631892E-10  0.500263E-10 -0.875280E-11 -0.233766E-10
   278.789  0.695377E-10  0.298330E-10 -0.148892E-10 -0.121972E-10
   281.819  0.666811E-10  0.881645E-11 -0.152418E-10  0.225106E-12
   284.849  0.554730E-10 -0.862565E-11 -0.100060E-10  0.110137E-10
   287.879  0.387072E-10 -0.191128E-10 -0.685956E-12  0.177865E-10
   290.909  0.203597E-10 -0.210490E-10  0.103193E-10  0.191978E-10
   293.940  0.458195E-11 -0.149227E-10  0.203236E-10  0.152075E-10
   296.970 -0.530438E-11 -0.308696E-11  0.270016E-10  0.702835E-11
   300.000 -0.377951E-11  0.545013E-11  0.144601E-10 -0.161103E-11

         1   # Prop. dir.: 1 forw; 2 backw
        14   # Sector #
     1.820   # Range in km 
 Depth (m)         Re(u)         Im(u)         Re(w)         Im(w)
     0.010 -0.117647E-13 -0.242437E-13   0.00000       0.00000    
     3.040 -0.713874E-11 -0.147485E-10   0.00000       0.00000    
     6.070 -0.141531E-10 -0.294844E-10   0.00000       0.00000    
     9.101 -0.209700E-10 -0.442884E-10   0.00000       0.00000    
    12.131 -0.274999E-10 -0.591862E-10   0.00000       0.00000    
    15.161 -0.336638E-10 -0.741925E-10   0.00000       0.00000    
    18.191 -0.393956E-10 -0.893106E-10   0.00000       0.00000    
    21.221 -0.446439E-10 -0.104527E-09   0.00000       0.00000    
    24.252 -0.493732E-10 -0.119814E-09   0.00000       0.00000    
    27.282 -0.535642E-10 -0.135121E-09   0.00000       0.00000    
    30.312 -0.572125E-10 -0.150384E-09   0.00000       0.00000    
    33.342 -0.603288E-10 -0.165518E-09   0.00000       0.00000    
    36.372 -0.629356E-10 -0.180420E-09   0.00000       0.00000    
    39.403 -0.650659E-10 -0.194970E-09   0.00000       0.00000    
    42.433 -0.667613E-10 -0.209036E-09   0.00000       0.00000    
    45.463 -0.680678E-10 -0.222471E-09   0.00000       0.00000    
    48.493 -0.690353E-10 -0.235123E-09   0.00000       0.00000    
    51.523 -0.697141E-10 -0.246830E-09   0.00000       0.00000    
    54.554 -0.701547E-10 -0.257431E-09   0.00000       0.00000    
    57.584 -0.704043E-10 -0.266763E-09   0.00000       0.00000    
    60.614 -0.705074E-10 -0.274669E-09   0.00000       0.00000    
    63.644 -0.705052E-10 -0.281002E-09   0.00000       0.00000    
    66.674 -0.704349E-10 -0.285621E-09   0.00000       0.00000    
    69.705 -0.703298E-10 -0.288405E-09   0.00000       0.00000    
    72.735 -0.702193E-10 -0.289238E-09   0.00000       0.00000    
    75.765 -0.701298E-10 -0.288034E-09   0.00000       0.00000    
    78.795 -0.700835E-10 -0.284717E-09   0.00000       0.00000    
    81.825 -0.700999E-10 -0.279236E-09   0.00000       0.00000    
    84.856 -0.701943E-10 -0.271555E-09   0.00000       0.00000    
    87.886 -0.703806E-10 -0.261660E-09   0.00000       0.00000    
    90.916 -0.706677E-10 -0.249554E-09   0.00000       0.00000    
    93.946 -0.710679E-10 -0.235245E-09   0.00000       0.00000    
    96.976 -0.715971E-10 -0.218754E-09   0.00000       0.00000    
   100.007 -0.722893E-10 -0.200071E-09   0.00000       0.00000    
   103.037 -0.732185E-10 -0.179142E-09   0.00000       0.00000    
   106.067 -0.745434E-10 -0.155784E-09   0.00000       0.00000    
   109.097 -0.553864E-10 -0.103662E-09 -0.103395E-10 -0.269006E-11
   112.127 -0.569538E-10 -0.826079E-10 -0.103132E-10 -0.250372E-11
   115.158 -0.593797E-10 -0.589234E-10 -0.995892E-11 -0.227212E-11
   118.188  0.575514E-10 -0.123042E-09 -0.103848E-09  0.212445E-11
   121.218  0.369403E-10 -0.148194E-09 -0.829396E-10  0.222168E-10
   124.248  0.126759E-11 -0.155117E-09 -0.545032E-10  0.335975E-10
   127.278 -0.387777E-10 -0.141751E-09 -0.252431E-10  0.332087E-10
   130.309 -0.724492E-10 -0.109908E-09 -0.140428E-11  0.215368E-10
   133.339 -0.911436E-10 -0.656517E-10  0.122519E-10  0.210326E-11
   136.369 -0.903242E-10 -0.181006E-10  0.134537E-10 -0.196018E-10
   139.399 -0.705380E-10  0.227502E-10  0.293710E-11 -0.375906E-10
   142.429 -0.371930E-10  0.485344E-10 -0.157451E-10 -0.469259E-10
   145.460  0.873224E-12  0.546396E-10 -0.371122E-10 -0.449783E-10
   148.490  0.336839E-10  0.413834E-10 -0.551317E-10 -0.320801E-10
   151.520  0.526901E-10  0.139305E-10 -0.647342E-10 -0.114216E-10
   154.550  0.529601E-10 -0.190303E-10 -0.630824E-10  0.117864E-10
   157.580  0.344368E-10 -0.475097E-10 -0.502696E-10  0.316603E-10
   160.611  0.194086E-11 -0.627671E-10 -0.292738E-10  0.431587E-10
   163.641 -0.360743E-10 -0.595360E-10 -0.517765E-11  0.433774E-10
   166.671 -0.696962E-10 -0.373547E-10  0.161419E-10  0.322924E-10
   169.701 -0.900914E-10 -0.663626E-12  0.295187E-10  0.127661E-10
   172.732 -0.917624E-10  0.423492E-10  0.318119E-10 -0.101817E-10
   175.762 -0.739448E-10  0.818557E-10  0.226981E-10 -0.306530E-10
   178.792 -0.407862E-10  0.108904E-09  0.474031E-11 -0.433675E-10
   181.822 -0.274145E-12  0.117697E-09 -0.172778E-10 -0.449958E-10
   184.852  0.378127E-10  0.107052E-09 -0.375789E-10 -0.349930E-10
   187.883  0.644004E-10  0.806747E-10 -0.508637E-10 -0.157217E-10
   190.913  0.734193E-10  0.461735E-10 -0.536500E-10  0.816163E-11
   193.943  0.633229E-10  0.130911E-10 -0.451408E-10  0.308940E-10
   196.973  0.374404E-10 -0.955140E-11 -0.274006E-10  0.470644E-10
   200.003  0.308206E-11 -0.155566E-10 -0.480558E-11  0.529664E-10
   203.034 -0.303652E-10 -0.311334E-11  0.170906E-10  0.475068E-10
   206.064 -0.538564E-10  0.247775E-10  0.329792E-10  0.324408E-10
   209.094 -0.609980E-10  0.611123E-10  0.391421E-10  0.118833E-10
   212.124 -0.496552E-10  0.967135E-10  0.343773E-10 -0.877252E-11
   215.154 -0.224564E-10  0.122600E-09  0.202762E-10 -0.242478E-10
   218.185  0.139312E-10  0.132282E-09  0.783569E-12 -0.307212E-10
   221.215  0.505507E-10  0.123407E-09 -0.188366E-10 -0.267824E-10
   224.245  0.784730E-10  0.983163E-10 -0.333604E-10 -0.137569E-10
   227.275  0.910862E-10  0.634031E-10 -0.389392E-10  0.467416E-11
   230.305  0.857618E-10  0.274365E-10 -0.340681E-10  0.234534E-10
   233.336  0.644820E-10 -0.704363E-12 -0.199465E-10  0.374678E-10
   236.366  0.332795E-10 -0.143006E-10 -0.143253E-12  0.428712E-10
   239.396  0.642537E-12 -0.104831E-10  0.203390E-10  0.380673E-10
   242.426 -0.246896E-10  0.908266E-11  0.363560E-10  0.241072E-10
   245.456 -0.359710E-10  0.386810E-10  0.439374E-10  0.440658E-11
   248.487 -0.301549E-10  0.700612E-10  0.412913E-10 -0.161405E-10
   251.517 -0.863299E-11  0.945818E-10  0.292416E-10 -0.324168E-10
   254.547  0.231707E-10  0.105428E-09  0.109985E-10 -0.403855E-10
   257.577  0.572315E-10  0.993316E-10 -0.867632E-11 -0.381049E-10
   260.607  0.849987E-10  0.773680E-10 -0.246870E-10 -0.262091E-10
   263.638  0.995811E-10  0.446271E-10 -0.328964E-10 -0.772638E-11
   266.668  0.974751E-10  0.887224E-11 -0.311579E-10  0.126983E-10
   269.698  0.794101E-10 -0.214631E-10 -0.198388E-10  0.299822E-10
   272.728  0.501032E-10 -0.394185E-10 -0.170012E-11  0.398795E-10
   275.758  0.170118E-10 -0.412410E-10  0.188189E-10  0.400278E-10
   278.789 -0.115897E-10 -0.272798E-10  0.367293E-10  0.305123E-10
   281.819 -0.287044E-10 -0.182870E-11  0.477426E-10  0.138071E-10
   284.849 -0.303445E-10  0.280227E-10  0.493256E-10 -0.587481E-11
   287.879 -0.164738E-10  0.542191E-10  0.413035E-10 -0.236548E-10
   290.909  0.906377E-11  0.697743E-10  0.258657E-10 -0.352095E-10
   293.940  0.395864E-10  0.704923E-10  0.698626E-11 -0.378293E-10
   296.970  0.673029E-10  0.559482E-10 -0.105860E-10 -0.310601E-10
   300.000  0.426372E-10  0.147525E-10 -0.112551E-10 -0.838649E-11

         1   # Prop. dir.: 1 forw; 2 backw
        15   # Sector #
     1.960   # Range in km 
 Depth (m)         Re(u)         Im(u)         Re(w)         Im(w)
     0.010 -0.346289E-13  0.202129E-13   0.00000       0.00000    
     3.040 -0.210259E-10  0.122690E-10   0.00000       0.00000    
     6.070 -0.418049E-10  0.243538E-10   0.00000       0.00000    
     9.101 -0.622342E-10  0.361529E-10   0.00000       0.00000    
    12.131 -0.821511E-10  0.475270E-10   0.00000       0.00000    
    15.161 -0.101406E-09  0.583410E-10   0.00000       0.00000    
    18.191 -0.119867E-09  0.684661E-10   0.00000       0.00000    
    21.221 -0.137419E-09  0.777806E-10   0.00000       0.00000    
    24.252 -0.153964E-09  0.861731E-10   0.00000       0.00000    
    27.282 -0.169428E-09  0.935446E-10   0.00000       0.00000    
    30.312 -0.183747E-09  0.998097E-10   0.00000       0.00000    
    33.342 -0.196876E-09  0.104900E-09   0.00000       0.00000    
    36.372 -0.208778E-09  0.108767E-09   0.00000       0.00000    
    39.403 -0.219425E-09  0.111381E-09   0.00000       0.00000    
    42.433 -0.228792E-09  0.112736E-09   0.00000       0.00000    
    45.463 -0.236855E-09  0.112852E-09   0.00000       0.00000    
    48.493 -0.243589E-09  0.111769E-09   0.00000       0.00000    
    51.523 -0.248962E-09  0.109556E-09   0.00000       0.00000    
    54.554 -0.252940E-09  0.106302E-09   0.00000       0.00000    
    57.584 -0.255487E-09  0.102119E-09   0.00000       0.00000    
    60.614 -0.256560E-09  0.971394E-10   0.00000       0.00000    
    63.644 -0.256116E-09  0.915120E-10   0.00000       0.00000    
    66.674 -0.254115E-09  0.853983E-10   0.00000       0.00000    
    69.705 -0.250523E-09  0.789677E-10   0.00000       0.00000    
    72.735 -0.245315E-09  0.723947E-10   0.00000       0.00000    
    75.765 -0.238472E-09  0.658529E-10   0.00000       0.00000    
    78.795 -0.229999E-09  0.595123E-10   0.00000       0.00000    
    81.825 -0.219910E-09  0.535351E-10   0.00000       0.00000    
    84.856 -0.208241E-09  0.480756E-10   0.00000       0.00000    
    87.886 -0.195040E-09  0.432841E-10   0.00000       0.00000    
    90.916 -0.180372E-09  0.393179E-10   0.00000       0.00000    
    93.946 -0.164303E-09  0.363672E-10   0.00000       0.00000    
    96.976 -0.146888E-09  0.347063E-10   0.00000       0.00000    
   100.007 -0.128149E-09  0.347973E-10   0.00000       0.00000    
   103.037 -0.843441E-10  0.214221E-10 -0.658758E-11  0.627131E-11
   106.067 -0.684138E-10  0.239079E-10 -0.625865E-11  0.686761E-11
   109.097 -0.838180E-10 -0.693651E-10 -0.285574E-10  0.755226E-10
   112.127 -0.107754E-09 -0.730008E-10 -0.108176E-10  0.669671E-10
   115.158 -0.124427E-09 -0.548602E-10  0.545301E-11  0.498333E-10
   118.188 -0.128808E-09 -0.247667E-10  0.141198E-10  0.278914E-10
   121.218 -0.118478E-09  0.770253E-11  0.128879E-10  0.578450E-11
   124.248 -0.946572E-10  0.339054E-10  0.263300E-11 -0.118699E-10
   127.278 -0.620790E-10  0.474737E-10 -0.133621E-10 -0.215131E-10
   130.309 -0.278365E-10  0.455343E-10 -0.304361E-10 -0.215115E-10
   133.339  0.418481E-12  0.292575E-10 -0.437840E-10 -0.125637E-10
   136.369  0.164366E-10  0.348440E-11 -0.496681E-10  0.247393E-11
   139.399  0.169790E-10 -0.245304E-10 -0.463418E-10  0.193060E-10
   142.429  0.265410E-11 -0.469682E-10 -0.344668E-10  0.332798E-10
   145.460 -0.222303E-10 -0.574282E-10 -0.169265E-10  0.405552E-10
   148.490 -0.507564E-10 -0.525476E-10  0.191689E-11  0.390664E-10
   151.520 -0.751490E-10 -0.328474E-10  0.173321E-10  0.290296E-10
   154.550 -0.887379E-10 -0.259532E-11  0.254176E-10  0.128741E-10
   157.580 -0.876354E-10  0.312791E-10  0.240898E-10 -0.538878E-11
   160.611 -0.716930E-10  0.609384E-10  0.136090E-10 -0.211904E-10
   163.641 -0.445087E-10  0.796137E-10 -0.348081E-11 -0.305651E-10
   166.671 -0.124818E-10  0.833033E-10 -0.229873E-10 -0.311503E-10
   169.701  0.168372E-10  0.717666E-10 -0.401127E-10 -0.227731E-10
   172.732  0.366709E-10  0.485602E-10 -0.506449E-10 -0.747995E-11
   175.762  0.427305E-10  0.201196E-10 -0.519945E-10  0.109954E-10
   178.792  0.342786E-10 -0.587939E-11 -0.438211E-10  0.281857E-10
   181.822  0.142811E-10 -0.224586E-10 -0.280950E-10  0.400199E-10
   184.852 -0.113877E-10 -0.250843E-10 -0.858390E-11  0.438404E-10
   187.883 -0.354729E-10 -0.127821E-10  0.101023E-10  0.390524E-10
   190.913 -0.512050E-10  0.116570E-10  0.236636E-10  0.272413E-10
   193.943 -0.540250E-10  0.424201E-10  0.291669E-10  0.117355E-10
   196.973 -0.427310E-10  0.721721E-10  0.257478E-10 -0.326990E-11
   200.003 -0.197558E-10  0.939195E-10  0.147810E-10 -0.138008E-10
   203.034  0.948317E-11  0.102769E-09 -0.513186E-12 -0.171233E-10
   206.064  0.379928E-10  0.971287E-10 -0.159205E-10 -0.124359E-10
   209.094  0.590021E-10  0.790653E-10 -0.273204E-10 -0.105983E-11
   212.124  0.676879E-10  0.537226E-10 -0.317318E-10  0.139169E-10
   215.154  0.623935E-10  0.279707E-10 -0.280531E-10  0.284473E-10
   218.185  0.450267E-10  0.863272E-11 -0.173093E-10  0.385745E-10
   221.215  0.205479E-10  0.744200E-12 -0.235444E-11  0.414547E-10
   224.245 -0.431478E-11  0.628724E-11  0.128923E-10  0.360885E-10
   227.275 -0.227921E-10  0.237166E-10  0.244757E-10  0.235814E-10
   230.305 -0.297973E-10  0.483896E-10  0.294326E-10  0.686396E-11
   233.336 -0.232097E-10  0.737793E-10  0.265569E-10 -0.100517E-10
   236.366 -0.439681E-11  0.931598E-10  0.167076E-10 -0.230906E-10
   239.396  0.221535E-10  0.101325E-09  0.258596E-11 -0.291466E-10
   242.426  0.499873E-10  0.959096E-10 -0.119610E-10 -0.268674E-10
   245.456  0.723303E-10  0.779746E-10 -0.229286E-10 -0.169945E-10
   248.487  0.838002E-10  0.517265E-10 -0.271826E-10 -0.217435E-11
   251.517  0.817580E-10  0.234347E-10 -0.232648E-10  0.137100E-10
   254.547  0.669561E-10 -0.160935E-12 -0.117758E-10  0.265163E-10
   257.577  0.433285E-10 -0.135502E-10  0.476480E-11  0.328816E-10
   260.607  0.169837E-10 -0.138318E-10  0.225391E-10  0.310628E-10
   263.638 -0.534208E-11 -0.142676E-11  0.373797E-10  0.213688E-10
   266.668 -0.179715E-10  0.200471E-10  0.458040E-10  0.607861E-11
   269.698 -0.176975E-10  0.446987E-10  0.458760E-10 -0.111298E-10
   272.728 -0.456311E-11  0.658473E-10  0.376851E-10 -0.260974E-10
   275.758  0.181740E-10  0.776884E-10  0.233207E-10 -0.352141E-10
   278.789  0.448747E-10  0.767238E-10  0.635581E-11 -0.363112E-10
   281.819  0.689321E-10  0.626082E-10 -0.903364E-11 -0.291898E-10
   284.849  0.844050E-10  0.382040E-10 -0.190878E-10 -0.156642E-10
   287.879  0.874683E-10  0.884688E-11 -0.213759E-10  0.887229E-12
   290.909  0.773177E-10 -0.189877E-10 -0.153771E-10  0.163519E-10
   293.940  0.563230E-10 -0.392722E-10 -0.259151E-11  0.268813E-10
   296.970  0.293975E-10 -0.478827E-10  0.138367E-10  0.298167E-10
   300.000  0.138031E-11 -0.217791E-10  0.149459E-10  0.121588E-10

         1   # Prop. dir.: 1 forw; 2 backw
        16   # Sector #
     2.100   # Range in km 
 Depth (m)         Re(u)         Im(u)         Re(w)         Im(w)
     0.010  0.169504E-13  0.455771E-13   0.00000       0.00000    
     3.040  0.102908E-10  0.276565E-10   0.00000       0.00000    
     6.070  0.204320E-10  0.548825E-10   0.00000       0.00000    
     9.101  0.303431E-10  0.814389E-10   0.00000       0.00000    
    12.131  0.399131E-10  0.107010E-09   0.00000       0.00000    
    15.161  0.490347E-10  0.131302E-09   0.00000       0.00000    
    18.191  0.576063E-10  0.154050E-09   0.00000       0.00000    
    21.221  0.655340E-10  0.175022E-09   0.00000       0.00000    
    24.252  0.727329E-10  0.194019E-09   0.00000       0.00000    
    27.282  0.791289E-10  0.210886E-09   0.00000       0.00000    
    30.312  0.846610E-10  0.225503E-09   0.00000       0.00000    
    33.342  0.892819E-10  0.237791E-09   0.00000       0.00000    
    36.372  0.929605E-10  0.247711E-09   0.00000       0.00000    
    39.403  0.956830E-10  0.255253E-09   0.00000       0.00000    
    42.433  0.974522E-10  0.260443E-09   0.00000       0.00000    
    45.463  0.982894E-10  0.263336E-09   0.00000       0.00000    
    48.493  0.982332E-10  0.264007E-09   0.00000       0.00000    
    51.523  0.973387E-10  0.262546E-09   0.00000       0.00000    
    54.554  0.956759E-10  0.259061E-09   0.00000       0.00000    
    57.584  0.933277E-10  0.253672E-09   0.00000       0.00000    
    60.614  0.903874E-10  0.246497E-09   0.00000       0.00000    
    63.644  0.869560E-10  0.237662E-09   0.00000       0.00000    
    66.674  0.831383E-10  0.227291E-09   0.00000       0.00000    
    69.705  0.790415E-10  0.215507E-09   0.00000       0.00000    
    72.735  0.747732E-10  0.202427E-09   0.00000       0.00000    
    75.765  0.704407E-10  0.188164E-09   0.00000       0.00000    
    78.795  0.661544E-10  0.172821E-09   0.00000       0.00000    
    81.825  0.620373E-10  0.156485E-09   0.00000       0.00000    
    84.856  0.582443E-10  0.139215E-09   0.00000       0.00000    
    87.886  0.550051E-10  0.121018E-09   0.00000       0.00000    
    90.916  0.527001E-10  0.101794E-09   0.00000       0.00000    
    93.946  0.520146E-10  0.812453E-10   0.00000       0.00000    
    96.976  0.336185E-10  0.475735E-10  0.479753E-11  0.282808E-11
   100.007  0.351325E-10  0.305468E-10  0.466461E-11  0.302543E-11
   103.037 -0.547978E-10  0.681212E-10  0.807885E-10  0.171842E-10
   106.067 -0.502510E-10  0.905160E-10  0.660517E-10  0.665163E-12
   109.097 -0.284888E-10  0.989136E-10  0.444790E-10 -0.117611E-10
   112.127 -0.368421E-12  0.926489E-10  0.214547E-10 -0.156343E-10
   115.158  0.247720E-10  0.730754E-10  0.170295E-11 -0.103591E-10
   118.188  0.397954E-10  0.442912E-10 -0.111623E-10  0.183025E-11
   121.218  0.407633E-10  0.125753E-10 -0.152587E-10  0.169295E-10
   124.248  0.275440E-10 -0.150063E-10 -0.108114E-10  0.303562E-10
   127.278  0.366397E-11 -0.323216E-10 -0.740473E-13  0.381459E-10
   130.309 -0.246684E-10 -0.357100E-10  0.132368E-10  0.379329E-10
   133.339 -0.501679E-10 -0.249095E-10  0.248705E-10  0.295081E-10
   136.369 -0.663203E-10 -0.312235E-11  0.311054E-10  0.148292E-10
   139.399 -0.690187E-10  0.237968E-10  0.296802E-10 -0.250789E-11
   142.429 -0.575751E-10  0.488250E-10  0.203563E-10 -0.182014E-10
   145.460 -0.348642E-10  0.655436E-10  0.496963E-11 -0.283407E-10
   148.490 -0.656278E-11  0.697516E-10 -0.130383E-10 -0.303944E-10
   151.520  0.203080E-10  0.605026E-10 -0.294915E-10 -0.238416E-10
   154.550  0.391682E-10  0.403162E-10 -0.405309E-10 -0.102935E-10
   157.580  0.455354E-10  0.145055E-10 -0.435812E-10  0.692257E-11
   160.611  0.381332E-10 -0.101951E-10 -0.379894E-10  0.236037E-10
   163.641  0.191800E-10 -0.273490E-10 -0.251794E-10  0.357236E-10
   166.671 -0.620883E-11 -0.324468E-10 -0.828531E-11  0.404301E-10
   169.701 -0.313433E-10 -0.240307E-10  0.863768E-11  0.367373E-10
   172.732 -0.496615E-10 -0.403654E-11  0.216252E-10  0.257455E-10
   175.762 -0.563816E-10  0.227268E-10  0.277808E-10  0.103352E-10
   178.792 -0.496828E-10  0.498175E-10  0.259742E-10 -0.557668E-11
   181.822 -0.311246E-10  0.708002E-10  0.170888E-10 -0.180311E-10
   184.852 -0.520979E-11  0.808643E-10  0.376165E-11 -0.240150E-10
   187.883  0.217877E-10  0.780124E-10 -0.103131E-10 -0.221999E-10
   190.913  0.434245E-10  0.635234E-10 -0.213364E-10 -0.132457E-10
   193.943  0.547075E-10  0.415857E-10 -0.263696E-10  0.397783E-12
   196.973  0.533260E-10  0.182015E-10 -0.240719E-10  0.151363E-10
   200.003  0.401885E-10 -0.354159E-12 -0.150234E-10  0.271553E-10
   203.034  0.191456E-10 -0.911726E-11 -0.156051E-11  0.333846E-10
   206.064 -0.402533E-11 -0.567150E-11  0.128323E-10  0.322662E-10
   209.094 -0.230997E-10  0.927400E-11  0.244153E-10  0.241285E-10
   212.124 -0.329749E-10  0.320980E-10  0.301453E-10  0.110835E-10
   215.154 -0.309335E-10  0.572075E-10  0.284467E-10 -0.352499E-11
   218.185 -0.172882E-10  0.784591E-10  0.196097E-10 -0.159761E-10
   221.215  0.474107E-11  0.906969E-10  0.572021E-11 -0.231143E-10
   224.245  0.298736E-10  0.910226E-10 -0.985767E-11 -0.231409E-10
   227.275  0.521159E-10  0.794861E-10 -0.233153E-10 -0.160606E-10
   230.305  0.662637E-10  0.590357E-10 -0.313381E-10 -0.367312E-11
   233.336  0.691857E-10  0.347494E-10 -0.319189E-10  0.108807E-10
   236.366  0.605718E-10  0.125525E-10 -0.248430E-10  0.239044E-10
   239.396  0.429702E-10 -0.225128E-11 -0.117330E-10  0.320635E-10
   242.426  0.211216E-10 -0.627375E-11  0.435553E-11  0.332076E-10
   245.456  0.760078E-12  0.115583E-11  0.196851E-10  0.268971E-10
   248.487 -0.128066E-10  0.178679E-10  0.307435E-10  0.145065E-10
   251.517 -0.159905E-10  0.394237E-10  0.350880E-10 -0.111403E-11
   254.547 -0.777515E-11  0.602302E-10  0.319207E-10 -0.163346E-10
   257.577  0.100724E-10  0.749112E-10  0.222600E-10 -0.276235E-10
   260.607  0.334668E-10  0.796014E-10  0.867460E-11 -0.323929E-10
   263.638  0.570213E-10  0.728504E-10 -0.535414E-11 -0.296109E-10
   266.668  0.753550E-10  0.559270E-10 -0.162765E-10 -0.200332E-10
   269.698  0.843725E-10  0.324657E-10 -0.213241E-10 -0.600628E-11
   272.728  0.822090E-10  0.755652E-11 -0.191607E-10  0.910442E-11
   275.758  0.696197E-10 -0.134876E-10 -0.101808E-10  0.217180E-10
   278.789  0.497426E-10 -0.263880E-10  0.360441E-11  0.288805E-10
   281.819  0.272996E-10 -0.288780E-10  0.190632E-10  0.289451E-10
   284.849  0.744930E-11 -0.211784E-10  0.326920E-10  0.219327E-10
   287.879 -0.543169E-11 -0.587404E-11  0.414378E-10  0.949531E-11
   290.909 -0.874790E-11  0.127626E-10  0.433992E-10 -0.549911E-11
   293.940 -0.223433E-11  0.298223E-10  0.382422E-10 -0.196546E-10
   296.970  0.120565E-10  0.409272E-10  0.272440E-10 -0.298415E-10
   300.000  0.151546E-10  0.216174E-10  0.648122E-11 -0.169544E-10

         1   # Prop. dir.: 1 forw; 2 backw
        17   # Sector #
     2.240   # Range in km 
 Depth (m)         Re(u)         Im(u)         Re(w)         Im(w)
     0.010  0.435120E-13 -0.497611E-14   0.00000       0.00000    
     3.040  0.264143E-10 -0.302628E-11   0.00000       0.00000    
     6.070  0.524679E-10 -0.603664E-11   0.00000       0.00000    
     9.101  0.779779E-10 -0.903663E-11   0.00000       0.00000    
    12.131  0.102681E-09 -0.120251E-10   0.00000       0.00000    
    15.161  0.126323E-09 -0.150046E-10   0.00000       0.00000    
    18.191  0.148662E-09 -0.179830E-10   0.00000       0.00000    
    21.221  0.169471E-09 -0.209723E-10   0.00000       0.00000    
    24.252  0.188544E-09 -0.239890E-10   0.00000       0.00000    
    27.282  0.205692E-09 -0.270524E-10   0.00000       0.00000    
    30.312  0.220752E-09 -0.301830E-10   0.00000       0.00000    
    33.342  0.233588E-09 -0.334002E-10   0.00000       0.00000    
    36.372  0.244087E-09 -0.367198E-10   0.00000       0.00000    
    39.403  0.252170E-09 -0.401519E-10   0.00000       0.00000    
    42.433  0.257787E-09 -0.436972E-10   0.00000       0.00000    
    45.463  0.260914E-09 -0.473464E-10   0.00000       0.00000    
    48.493  0.261562E-09 -0.510777E-10   0.00000       0.00000    
    51.523  0.259766E-09 -0.548557E-10   0.00000       0.00000    
    54.554  0.255593E-09 -0.586314E-10   0.00000       0.00000    
    57.584  0.249130E-09 -0.623436E-10   0.00000       0.00000    
    60.614  0.240489E-09 -0.659199E-10   0.00000       0.00000    
    63.644  0.229796E-09 -0.692800E-10   0.00000       0.00000    
    66.674  0.217193E-09 -0.723406E-10   0.00000       0.00000    
    69.705  0.202826E-09 -0.750218E-10   0.00000       0.00000    
    72.735  0.186837E-09 -0.772571E-10   0.00000       0.00000    
    75.765  0.169345E-09 -0.790084E-10   0.00000       0.00000    
    78.795  0.150425E-09 -0.802928E-10   0.00000       0.00000    
    81.825  0.130055E-09 -0.812305E-10   0.00000       0.00000    
    84.856  0.108030E-09 -0.821229E-10   0.00000       0.00000    
    87.886  0.837949E-10 -0.836111E-10   0.00000       0.00000    
    90.916  0.479961E-10 -0.610769E-10 -0.228183E-12 -0.730896E-11
    93.946  0.271728E-10 -0.624349E-10 -0.145680E-11 -0.686606E-11
    96.976  0.921876E-10  0.252343E-10  0.102995E-13 -0.921985E-10
   100.007  0.113259E-09  0.114955E-10 -0.164583E-10 -0.709054E-10
   103.037  0.116497E-09 -0.146434E-10 -0.259272E-10 -0.436988E-10
   106.067  0.102603E-09 -0.427787E-10 -0.256377E-10 -0.169068E-10
   109.097  0.747699E-10 -0.640853E-10 -0.162923E-10  0.425315E-11
   112.127  0.389691E-10 -0.724448E-10 -0.110513E-11  0.162085E-10
   115.158  0.291173E-11 -0.654480E-10  0.153273E-10  0.176164E-10
   118.188 -0.256905E-10 -0.447213E-10  0.282974E-10  0.958535E-11
   121.218 -0.409830E-10 -0.153681E-10  0.341867E-10 -0.463892E-11
   124.248 -0.403907E-10  0.154012E-10  0.313450E-10 -0.204917E-10
   127.278 -0.252262E-10  0.401215E-10  0.204543E-10 -0.332232E-10
   130.309 -0.316972E-12  0.529577E-10  0.430014E-11 -0.390674E-10
   133.339  0.272410E-10  0.511512E-10 -0.129816E-10 -0.361547E-10
   136.369  0.498825E-10  0.356732E-10 -0.269858E-10 -0.249401E-10
   139.399  0.614701E-10  0.109329E-10 -0.341719E-10 -0.804551E-11
   142.429  0.588039E-10 -0.163762E-10 -0.327624E-10  0.104358E-10
   145.460  0.423823E-10 -0.389876E-10 -0.231842E-10  0.259962E-10
   148.490  0.162213E-10 -0.508998E-10 -0.794520E-11  0.348589E-10
   151.520 -0.132038E-10 -0.488728E-10  0.901483E-11  0.349241E-10
   154.550 -0.386151E-10 -0.332150E-10  0.233311E-10  0.262821E-10
   157.580 -0.537698E-10 -0.766716E-11  0.313209E-10  0.111704E-10
   160.611 -0.550136E-10  0.215719E-10  0.309089E-10 -0.660683E-11
   163.641 -0.421640E-10  0.474279E-10  0.221423E-10 -0.226443E-10
   166.671 -0.185132E-10  0.637380E-10  0.716608E-11 -0.330382E-10
   169.701  0.100384E-10  0.667895E-10 -0.103260E-10 -0.353482E-10
   172.732  0.364890E-10  0.562283E-10 -0.260260E-10 -0.291791E-10
   175.762  0.544978E-10  0.351175E-10 -0.360919E-10 -0.162427E-10
   178.792  0.599567E-10  0.913873E-11 -0.381027E-10  0.107520E-12
   181.822  0.519792E-10 -0.148554E-10 -0.316482E-10  0.157455E-10
   184.852  0.330708E-10 -0.305639E-10 -0.184137E-10  0.268198E-10
   187.883  0.844374E-11 -0.338060E-10 -0.174102E-11  0.307154E-10
   190.913 -0.153351E-10 -0.235428E-10  0.142175E-10  0.266885E-10
   193.943 -0.320174E-10 -0.210149E-11  0.255367E-10  0.160191E-10
   196.973 -0.372424E-10  0.254426E-10  0.294880E-10  0.165409E-11
   200.003 -0.296095E-10  0.525618E-10  0.251978E-10 -0.125660E-10
   203.034 -0.109914E-10  0.729176E-10  0.138375E-10 -0.228937E-10
   206.064  0.139819E-10  0.819344E-10 -0.169632E-11 -0.266254E-10
   209.094  0.391246E-10  0.779100E-10 -0.175261E-10 -0.227747E-10
   212.124  0.582729E-10  0.623937E-10 -0.297686E-10 -0.123056E-10
   215.154  0.668378E-10  0.397468E-10 -0.354968E-10  0.212786E-11
   218.185  0.629425E-10  0.160068E-10 -0.334484E-10  0.168667E-10
   221.215  0.478622E-10 -0.265008E-11 -0.243097E-10  0.281757E-10
   224.245  0.256699E-10 -0.114571E-10 -0.105097E-10  0.331830E-10
   227.275  0.218255E-11 -0.823101E-11  0.441591E-11  0.305952E-10
   230.305 -0.165146E-10  0.611984E-11  0.167261E-10  0.210106E-10
   233.336 -0.255914E-10  0.278661E-10  0.234130E-10  0.675891E-11
   236.366 -0.226636E-10  0.514298E-10  0.229440E-10 -0.868851E-11
   239.396 -0.835629E-11  0.708013E-10  0.156259E-10 -0.215848E-10
   242.426  0.138899E-10  0.810433E-10  0.350693E-11 -0.288331E-10
   245.456  0.387076E-10  0.795011E-10 -0.101521E-10 -0.287424E-10
   248.487  0.601555E-10  0.664287E-10 -0.217004E-10 -0.214286E-10
   251.517  0.731899E-10  0.448808E-10 -0.280054E-10 -0.876803E-11
   254.547  0.748873E-10  0.199160E-10 -0.272224E-10  0.607812E-11
   257.577  0.651210E-10 -0.268079E-11 -0.192382E-10  0.194461E-10
   260.607  0.465360E-10 -0.178266E-10 -0.568676E-11  0.280611E-10
   263.638  0.238443E-10 -0.223681E-10  0.104621E-10  0.298221E-10
   266.668  0.262881E-11 -0.158044E-10  0.256293E-10  0.242874E-10
   269.698 -0.120349E-10 -0.345811E-12  0.364896E-10  0.127527E-10
   272.728 -0.167993E-10  0.196937E-10  0.407578E-10 -0.208974E-11
   275.758 -0.108087E-10  0.389985E-10  0.377100E-10 -0.168186E-10
   278.789  0.416301E-11  0.525683E-10  0.283218E-10 -0.281108E-10
   281.819  0.242196E-10  0.569182E-10  0.149984E-10 -0.335245E-10
   284.849  0.443467E-10  0.508738E-10  0.973945E-12 -0.320517E-10
   287.879  0.596561E-10  0.357812E-10 -0.104700E-10 -0.243174E-10
   290.909  0.665553E-10  0.151002E-10 -0.167742E-10 -0.123838E-10
   293.940  0.635637E-10 -0.649706E-11 -0.166758E-10  0.776617E-12
   296.970  0.515890E-10 -0.242877E-10 -0.104594E-10  0.120066E-10
   300.000  0.168098E-10 -0.173134E-10  0.829409E-13  0.935481E-11

         1   # Prop. dir.: 1 forw; 2 backw
        18   # Sector #
     2.380   # Range in km 
 Depth (m)         Re(u)         Im(u)         Re(w)         Im(w)
     0.010 -0.265751E-15 -0.349498E-13   0.00000       0.00000    
     3.040 -0.158135E-12 -0.212249E-10   0.00000       0.00000    
     6.070 -0.288659E-12 -0.422162E-10   0.00000       0.00000    
     9.101 -0.369786E-12 -0.628815E-10   0.00000       0.00000    
    12.131 -0.388070E-12 -0.830599E-10   0.00000       0.00000    
    15.161 -0.342442E-12 -0.102594E-09   0.00000       0.00000    
    18.191 -0.246643E-12 -0.121329E-09   0.00000       0.00000    
    21.221 -0.130322E-12 -0.139113E-09   0.00000       0.00000    
    24.252 -0.387638E-13 -0.155802E-09   0.00000       0.00000    
    27.282 -0.312557E-13 -0.171253E-09   0.00000       0.00000    
    30.312 -0.177873E-12 -0.185331E-09   0.00000       0.00000    
    33.342 -0.555341E-12 -0.197908E-09   0.00000       0.00000    
    36.372 -0.124194E-11 -0.208861E-09   0.00000       0.00000    
    39.403 -0.231185E-11 -0.218076E-09   0.00000       0.00000    
    42.433 -0.382942E-11 -0.225446E-09   0.00000       0.00000    
    45.463 -0.584365E-11 -0.230875E-09   0.00000       0.00000    
    48.493 -0.838359E-11 -0.234279E-09   0.00000       0.00000    
    51.523 -0.114545E-10 -0.235582E-09   0.00000       0.00000    
    54.554 -0.150361E-10 -0.234725E-09   0.00000       0.00000    
    57.584 -0.190812E-10 -0.231657E-09   0.00000       0.00000    
    60.614 -0.235184E-10 -0.226346E-09   0.00000       0.00000    
    63.644 -0.282558E-10 -0.218766E-09   0.00000       0.00000    
    66.674 -0.331881E-10 -0.208892E-09   0.00000       0.00000    
    69.705 -0.382088E-10 -0.196688E-09   0.00000       0.00000    
    72.735 -0.432289E-10 -0.182070E-09   0.00000       0.00000    
    75.765 -0.482082E-10 -0.164853E-09   0.00000       0.00000    
    78.795 -0.532078E-10 -0.144629E-09   0.00000       0.00000    
    81.825 -0.431850E-10 -0.987868E-10 -0.530558E-11 -0.600066E-11
    84.856 -0.467276E-10 -0.794704E-10 -0.731035E-11 -0.491077E-11
    87.886 -0.506537E-10 -0.563111E-10 -0.892286E-11 -0.366502E-11
    90.916  0.494246E-10 -0.126141E-09 -0.100296E-09  0.194827E-11
    93.946  0.300177E-10 -0.148955E-09 -0.788654E-10  0.196948E-10
    96.976 -0.711469E-12 -0.154797E-09 -0.509014E-10  0.294977E-10
   100.007 -0.337380E-10 -0.142795E-09 -0.225158E-10  0.290979E-10
   103.037 -0.602000E-10 -0.115078E-09  0.838232E-12  0.191751E-10
   106.067 -0.732554E-10 -0.771915E-10  0.150917E-10  0.287767E-11
   109.097 -0.696366E-10 -0.370845E-10  0.183376E-10 -0.151027E-10
   112.127 -0.503806E-10 -0.325498E-11  0.112255E-10 -0.297740E-10
   115.158 -0.205041E-10  0.173556E-10 -0.322834E-11 -0.371240E-10
   118.188  0.123135E-10  0.211012E-10 -0.204049E-10 -0.351303E-10
   121.218  0.397105E-10  0.853650E-11 -0.352434E-10 -0.242530E-10
   124.248  0.547787E-10 -0.157536E-10 -0.435054E-10 -0.728953E-11
   127.278  0.538101E-10 -0.443473E-10 -0.428216E-10  0.113648E-10
   130.309  0.372173E-10 -0.688932E-10 -0.332564E-10  0.268600E-10
   133.339  0.939188E-11 -0.822360E-10 -0.172489E-10  0.351426E-10
   136.369 -0.224435E-10 -0.802153E-10  0.104738E-11  0.339963E-10
   139.399 -0.500969E-10 -0.626838E-10  0.168555E-10  0.236090E-10
   142.429 -0.664955E-10 -0.334941E-10  0.260137E-10  0.652510E-11
   145.460 -0.674714E-10  0.532599E-12  0.260456E-10 -0.130021E-10
   148.490 -0.527903E-10  0.313816E-10  0.167921E-10 -0.300883E-10
   151.520 -0.261736E-10  0.518990E-10  0.447291E-12 -0.404508E-10
   154.550  0.568580E-11  0.576050E-10 -0.190035E-10 -0.414813E-10
   157.580  0.348514E-10  0.478047E-10 -0.367970E-10 -0.328914E-10
   160.611  0.541666E-10  0.257213E-10 -0.485930E-10 -0.167682E-10
   163.641  0.590602E-10 -0.236614E-11 -0.515583E-10  0.296642E-11
   166.671  0.486760E-10 -0.287511E-10 -0.450600E-10  0.215542E-10
   169.701  0.260527E-10 -0.462714E-10 -0.307967E-10  0.345972E-10
   172.732 -0.268858E-11 -0.501170E-10 -0.123415E-10  0.391512E-10
   175.762 -0.299234E-10 -0.390208E-10  0.578208E-11  0.344422E-10
   178.792 -0.484661E-10 -0.155342E-10  0.192496E-10  0.220281E-10
   181.822 -0.533804E-10  0.146662E-10  0.250192E-10  0.537313E-11
   184.852 -0.431989E-10  0.442541E-10  0.220744E-10 -0.110522E-10
   187.883 -0.202556E-10  0.661277E-10  0.116449E-10 -0.229129E-10
   190.913  0.994345E-11  0.752022E-10 -0.314632E-11 -0.271018E-10
   193.943  0.401381E-10  0.696655E-10 -0.181101E-10 -0.225105E-10
   196.973  0.631561E-10  0.513928E-10 -0.290785E-10 -0.102864E-10
   200.003  0.737043E-10  0.254235E-10 -0.329728E-10  0.648063E-11
   203.034  0.696663E-10 -0.135551E-11 -0.285820E-10  0.235562E-10
   206.064  0.525807E-10 -0.219719E-10 -0.168589E-10  0.366377E-10
   209.094  0.271982E-10 -0.311275E-10 -0.663263E-12  0.424353E-10
   212.124  0.238971E-12 -0.265103E-10  0.159754E-10  0.394854E-10
   215.154 -0.213229E-10 -0.933628E-11  0.288859E-10  0.284986E-10
   218.185 -0.320103E-10  0.160067E-10  0.348103E-10  0.121590E-10
   221.215 -0.291888E-10  0.431059E-10  0.322210E-10 -0.556561E-11
   224.245 -0.136785E-10  0.651641E-10  0.216974E-10 -0.204234E-10
   227.275  0.105121E-10  0.767116E-10  0.577237E-11 -0.289356E-10
   230.305  0.372446E-10  0.749622E-10 -0.117057E-10 -0.292437E-10
   233.336  0.598247E-10  0.604696E-10 -0.265319E-10 -0.215431E-10
   236.366  0.726888E-10  0.369481E-10 -0.351809E-10 -0.799868E-11
   239.396  0.727771E-10  0.102968E-10 -0.356618E-10  0.782630E-11
   242.426  0.602579E-10 -0.128988E-10 -0.279835E-10  0.218770E-10
   245.456  0.384327E-10 -0.270145E-10 -0.141194E-10  0.306206E-10
   248.487  0.128641E-10 -0.287654E-10  0.250795E-11  0.319115E-10
   251.517 -0.100440E-10 -0.179790E-10  0.178905E-10  0.254979E-10
   254.547 -0.246473E-10  0.241802E-11  0.284256E-10  0.130499E-10
   257.577 -0.274415E-10  0.271794E-10  0.317876E-10 -0.228637E-11
   260.607 -0.178844E-10  0.500746E-10  0.274690E-10 -0.166914E-10
   263.638  0.153098E-11  0.654413E-10  0.168650E-10 -0.266264E-10
   266.668  0.259537E-10  0.695573E-10  0.289022E-11 -0.296989E-10
   269.698  0.494169E-10  0.615078E-10 -0.107679E-10 -0.252319E-10
   272.728  0.663252E-10  0.433360E-10 -0.205691E-10 -0.144011E-10
   275.758  0.728090E-10  0.194703E-10 -0.239830E-10  0.823980E-13
   278.789  0.676245E-10 -0.442446E-11 -0.200871E-10  0.146571E-10
   281.819  0.523793E-10 -0.228616E-10 -0.976025E-11  0.257884E-10
   284.849  0.310593E-10 -0.318626E-10  0.456564E-11  0.308187E-10
   287.879  0.898403E-11 -0.298799E-10  0.195233E-10  0.285874E-10
   290.909 -0.853056E-11 -0.180950E-10  0.316392E-10  0.196746E-10
   293.940 -0.174638E-10 -0.418668E-13  0.381653E-10  0.622065E-11
   296.970 -0.160271E-10  0.193313E-10  0.377157E-10 -0.862187E-11
   300.000 -0.251193E-11  0.174571E-10  0.152799E-10 -0.107324E-10

         1   # Prop. dir.: 1 forw; 2 backw
        19   # Sector #
     2.520   # Range in km 
 Depth (m)         Re(u)         Im(u)         Re(w)         Im(w)
     0.010 -0.355056E-13 -0.395646E-14   0.00000       0.00000    
     3.040 -0.215491E-10 -0.240475E-11   0.00000       0.00000    
     6.070 -0.427831E-10 -0.479511E-11   0.00000       0.00000    
     9.101 -0.635349E-10 -0.717244E-11   0.00000       0.00000    
    12.131 -0.835752E-10 -0.953024E-11   0.00000       0.00000    
    15.161 -0.102689E-09 -0.118616E-10   0.00000       0.00000    
    18.191 -0.120679E-09 -0.141584E-10   0.00000       0.00000    
    21.221 -0.137367E-09 -0.164108E-10   0.00000       0.00000    
    24.252 -0.152595E-09 -0.186062E-10   0.00000       0.00000    
    27.282 -0.166227E-09 -0.207272E-10   0.00000       0.00000    
    30.312 -0.178153E-09 -0.227511E-10   0.00000       0.00000    
    33.342 -0.188278E-09 -0.246478E-10   0.00000       0.00000    
    36.372 -0.196530E-09 -0.263794E-10   0.00000       0.00000    
    39.403 -0.202852E-09 -0.278992E-10   0.00000       0.00000    
    42.433 -0.207204E-09 -0.291515E-10   0.00000       0.00000    
    45.463 -0.209556E-09 -0.300728E-10   0.00000       0.00000    
    48.493 -0.209890E-09 -0.305923E-10   0.00000       0.00000    
    51.523 -0.208195E-09 -0.306334E-10   0.00000       0.00000    
    54.554 -0.204466E-09 -0.301163E-10   0.00000       0.00000    
    57.584 -0.198700E-09 -0.289574E-10   0.00000       0.00000    
    60.614 -0.190892E-09 -0.270694E-10   0.00000       0.00000    
    63.644 -0.181019E-09 -0.243543E-10   0.00000       0.00000    
    66.674 -0.169026E-09 -0.206890E-10   0.00000       0.00000    
    69.705 -0.154778E-09 -0.158926E-10   0.00000       0.00000    
    72.735 -0.137980E-09 -0.966191E-11   0.00000       0.00000    
    75.765 -0.964484E-10 -0.677610E-11 -0.131617E-11  0.264379E-11
    78.795 -0.804389E-10 -0.120155E-12 -0.283644E-11  0.333113E-11
    81.825 -0.869555E-10 -0.103946E-09 -0.344885E-10  0.841887E-10
    84.856 -0.115264E-09 -0.104327E-09 -0.149117E-10  0.775383E-10
    87.886 -0.134733E-09 -0.864884E-10  0.304804E-11  0.610632E-10
    90.916 -0.141336E-09 -0.568456E-10  0.143447E-10  0.390034E-10
    93.946 -0.132757E-09 -0.233673E-10  0.165227E-10  0.160883E-10
    96.976 -0.109930E-09  0.569643E-11  0.976315E-11 -0.301995E-11
   100.007 -0.772631E-10  0.235470E-10 -0.343127E-11 -0.146211E-10
   103.037 -0.416749E-10  0.263992E-10 -0.189865E-10 -0.168248E-10
   106.067 -0.108932E-10  0.143558E-10 -0.323441E-10 -0.100071E-10
   109.097  0.851001E-11 -0.867605E-11 -0.396381E-10  0.328975E-11
   112.127  0.127982E-10 -0.360250E-10 -0.386784E-10  0.190010E-10
   115.158  0.202173E-11 -0.599900E-10 -0.294956E-10  0.325708E-10
   118.188 -0.200070E-10 -0.738256E-10 -0.143147E-10  0.401068E-10
   121.218 -0.467035E-10 -0.734626E-10  0.303279E-11  0.393611E-10
   124.248 -0.704057E-10 -0.585317E-10  0.181028E-10  0.302882E-10
   127.278 -0.843369E-10 -0.324270E-10  0.269829E-10  0.150407E-10
   130.309 -0.843236E-10 -0.140092E-11  0.272941E-10 -0.259547E-11
   133.339 -0.698350E-10  0.270634E-10  0.187956E-10 -0.181766E-10
   136.369 -0.440823E-10  0.461808E-10  0.344336E-11 -0.277368E-10
   139.399 -0.131549E-10  0.515963E-10 -0.151089E-10 -0.287958E-10
   142.429  0.155687E-10  0.424741E-10 -0.324325E-10 -0.209818E-10
   145.460  0.353227E-10  0.216734E-10 -0.444327E-10 -0.611707E-11
   148.490  0.416812E-10 -0.502331E-11 -0.483609E-10  0.122506E-10
   151.520  0.336646E-10 -0.304221E-10 -0.434740E-10  0.297460E-10
   154.550  0.139535E-10 -0.477691E-10 -0.311823E-10  0.422622E-10
   157.580 -0.118365E-10 -0.524669E-10 -0.146508E-10  0.469752E-10
   160.611 -0.366190E-10 -0.432123E-10  0.203009E-11  0.430214E-10
   163.641 -0.536560E-10 -0.222770E-10  0.148927E-10  0.316739E-10
   166.671 -0.582644E-10  0.512968E-11  0.210864E-10  0.159802E-10
   169.701 -0.489714E-10  0.322382E-10  0.195689E-10 -0.396811E-13
   172.732 -0.278384E-10  0.524698E-10  0.113225E-10 -0.124225E-10
   175.762  0.121878E-12  0.611099E-10 -0.948785E-12 -0.182573E-10
   178.792  0.282635E-10  0.564736E-10 -0.135564E-10 -0.163942E-10
   181.822  0.500171E-10  0.402767E-10 -0.228026E-10 -0.769423E-11
   184.852  0.605454E-10  0.171333E-10 -0.259402E-10  0.523521E-11
   187.883  0.579254E-10 -0.667885E-11 -0.218747E-10  0.187422E-10
   190.913  0.435679E-10 -0.248501E-10 -0.114295E-10  0.290838E-10
   193.943  0.217795E-10 -0.326479E-10  0.288137E-11  0.333841E-10
   196.973 -0.139781E-11 -0.280922E-10  0.175130E-10  0.303564E-10
   200.003 -0.197620E-10 -0.124027E-10  0.288032E-10  0.206070E-10
   203.034 -0.285294E-10  0.103725E-10  0.339075E-10  0.645561E-11
   206.064 -0.255179E-10  0.344446E-10  0.315159E-10 -0.867754E-11
   209.094 -0.116403E-10  0.537886E-10  0.221740E-10 -0.211523E-10
   212.124  0.939829E-11  0.636781E-10  0.813347E-11 -0.280312E-10
   215.154  0.321068E-10  0.618605E-10 -0.722528E-11 -0.278099E-10
   218.185  0.506438E-10  0.490789E-10 -0.202452E-10 -0.207747E-10
   221.215  0.603128E-10  0.288312E-10 -0.279016E-10 -0.890284E-11
   224.245  0.587357E-10  0.643513E-11 -0.285398E-10  0.466004E-11
   227.275  0.464182E-10 -0.123430E-10 -0.222601E-10  0.164094E-10
   230.305  0.265760E-10 -0.227452E-10 -0.108577E-10  0.233673E-10
   233.336  0.428630E-11 -0.221959E-10  0.265655E-11  0.238220E-10
   236.366 -0.148112E-10 -0.109077E-10  0.148316E-10  0.177398E-10
   239.396 -0.259265E-10  0.822016E-11  0.226459E-10  0.675000E-11
   242.426 -0.262917E-10  0.303661E-10  0.242564E-10 -0.628576E-11
   245.456 -0.158095E-10  0.500110E-10  0.194409E-10 -0.180057E-10
   248.487  0.297148E-11  0.623056E-10  0.963105E-11 -0.253948E-10
   251.517  0.255297E-10  0.642435E-10 -0.246678E-11 -0.265354E-10
   254.547  0.465108E-10  0.553529E-10 -0.135611E-10 -0.210773E-10
   257.577  0.610421E-10  0.377560E-10 -0.206005E-10 -0.103152E-10
   260.607  0.658980E-10  0.155945E-10 -0.215291E-10  0.313736E-11
   263.638  0.602333E-10 -0.602142E-11 -0.157893E-10  0.159947E-10
   266.668  0.457228E-10 -0.222643E-10 -0.445263E-11  0.250990E-10
   269.698  0.260873E-10 -0.297422E-10  0.100462E-10  0.281812E-10
   272.728  0.614060E-11 -0.272684E-10  0.245025E-10  0.243959E-10
   275.758 -0.939552E-11 -0.160799E-10  0.357083E-10  0.145082E-10
   278.789 -0.170214E-10  0.533762E-12  0.412111E-10  0.692131E-12
   281.819 -0.152606E-10  0.180823E-10  0.398775E-10 -0.140010E-10
   284.849 -0.495154E-11  0.319869E-10  0.321358E-10 -0.263708E-10
   287.879  0.110216E-10  0.386806E-10  0.198437E-10 -0.338162E-10
   290.909  0.284793E-10  0.364328E-10  0.582409E-11 -0.349237E-10
   293.940  0.429817E-10  0.257111E-10 -0.681287E-11 -0.297634E-10
   296.970  0.508938E-10  0.900964E-11 -0.153979E-10 -0.198265E-10
   300.000  0.251144E-10 -0.489924E-11 -0.915276E-11 -0.381690E-11

         1   # Prop. dir.: 1 forw; 2 backw
        20   # Sector #
     2.660   # Range in km 
 Depth (m)         Re(u)         Im(u)         Re(w)         Im(w)
     0.010 -0.208375E-13  0.336945E-13   0.00000       0.00000    
     3.040 -0.126359E-10  0.204464E-10   0.00000       0.00000    
     6.070 -0.250163E-10  0.405622E-10   0.00000       0.00000    
     9.101 -0.369756E-10  0.601555E-10   0.00000       0.00000    
    12.131 -0.483169E-10  0.789721E-10   0.00000       0.00000    
    15.161 -0.588587E-10  0.967662E-10   0.00000       0.00000    
    18.191 -0.684388E-10  0.113304E-09   0.00000       0.00000    
    21.221 -0.769177E-10  0.128367E-09   0.00000       0.00000    
    24.252 -0.841806E-10  0.141754E-09   0.00000       0.00000    
    27.282 -0.901382E-10  0.153285E-09   0.00000       0.00000    
    30.312 -0.947271E-10  0.162808E-09   0.00000       0.00000    
    33.342 -0.979079E-10  0.170198E-09   0.00000       0.00000    
    36.372 -0.996651E-10  0.175361E-09   0.00000       0.00000    
    39.403 -0.100003E-09  0.178236E-09   0.00000       0.00000    
    42.433 -0.989402E-10  0.178799E-09   0.00000       0.00000    
    45.463 -0.965095E-10  0.177056E-09   0.00000       0.00000    
    48.493 -0.927467E-10  0.173044E-09   0.00000       0.00000    
    51.523 -0.876826E-10  0.166823E-09   0.00000       0.00000    
    54.554 -0.813293E-10  0.158458E-09   0.00000       0.00000    
    57.584 -0.736546E-10  0.147998E-09   0.00000       0.00000    
    60.614 -0.645352E-10  0.135421E-09   0.00000       0.00000    
    63.644 -0.536784E-10  0.120547E-09   0.00000       0.00000    
    66.674 -0.404689E-10  0.102872E-09   0.00000       0.00000    
    69.705 -0.260521E-10  0.677667E-10  0.805704E-11  0.416511E-11
    72.735 -0.133262E-10  0.507811E-10  0.749807E-11  0.410741E-11
    75.765 -0.123116E-09  0.369310E-10  0.898087E-10  0.559904E-10
    78.795 -0.127232E-09  0.667655E-10  0.835527E-10  0.331600E-10
    81.825 -0.111877E-09  0.882280E-10  0.673084E-10  0.107097E-10
    84.856 -0.835956E-10  0.977659E-10  0.450775E-10 -0.563376E-11
    87.886 -0.501132E-10  0.928646E-10  0.212568E-10 -0.128234E-10
    90.916 -0.194746E-10  0.739380E-10  0.367482E-12 -0.104312E-10
    93.946  0.148356E-11  0.447563E-10 -0.137668E-10 -0.395213E-12
    96.976  0.861381E-11  0.116865E-10 -0.188864E-10  0.136238E-10
   100.007  0.136511E-11 -0.178747E-10 -0.148461E-10  0.272231E-10
   103.037 -0.171809E-10 -0.373762E-10 -0.365454E-11  0.363770E-10
   106.067 -0.411736E-10 -0.427717E-10  0.110315E-10  0.384299E-10
   109.097 -0.635363E-10 -0.335253E-10  0.248277E-10  0.327233E-10
   112.127 -0.777896E-10 -0.127102E-10  0.337249E-10  0.207035E-10
   115.158 -0.796905E-10  0.138117E-10  0.350858E-10  0.549588E-11
   118.188 -0.682708E-10  0.389050E-10  0.282864E-10 -0.894424E-11
   121.218 -0.460246E-10  0.559755E-10  0.148398E-10 -0.188742E-10
   124.248 -0.182124E-10  0.606192E-10 -0.202138E-11 -0.217347E-10
   127.278  0.852673E-11  0.516906E-10 -0.181922E-10 -0.168019E-10
   130.309  0.278894E-10  0.315330E-10 -0.297512E-10 -0.535731E-11
   133.339  0.355082E-10  0.532096E-11 -0.339555E-10  0.965902E-11
   136.369  0.300340E-10 -0.202949E-10 -0.299207E-10  0.244162E-10
   139.399  0.134357E-10 -0.388952E-10 -0.188234E-10  0.351794E-10
   142.429 -0.954809E-11 -0.459105E-10 -0.357667E-11  0.392612E-10
   145.460 -0.326487E-10 -0.397451E-10  0.119278E-10  0.356917E-10
   148.490 -0.496782E-10 -0.221352E-10  0.238155E-10  0.254456E-10
   151.520 -0.560950E-10  0.234175E-11  0.292047E-10  0.111668E-10
   154.550 -0.501281E-10  0.274635E-10  0.269169E-10 -0.352594E-11
   157.580 -0.331863E-10  0.469576E-10  0.177456E-10 -0.149758E-10
   160.611 -0.945366E-11  0.560828E-10  0.422116E-11 -0.204210E-10
   163.641  0.152109E-10  0.528025E-10 -0.100600E-10 -0.186889E-10
   166.671  0.347860E-10  0.382588E-10 -0.213670E-10 -0.104753E-10
   169.701  0.446211E-10  0.164379E-10 -0.267869E-10  0.185702E-11
   172.732  0.426055E-10 -0.687431E-11 -0.249552E-10  0.149041E-10
   175.762  0.296800E-10 -0.255800E-10 -0.163842E-10  0.251073E-10
   178.792  0.956862E-11 -0.348145E-10 -0.330961E-11  0.296712E-10
   181.822 -0.121915E-10 -0.321618E-10  0.108988E-10  0.272789E-10
   184.852 -0.296723E-10 -0.182384E-10  0.226070E-10  0.184244E-10
   187.883 -0.380648E-10  0.349519E-11  0.288442E-10  0.527917E-11
   190.913 -0.348932E-10  0.276377E-10  0.280511E-10 -0.886785E-11
   193.943 -0.206302E-10  0.482302E-10  0.204615E-10 -0.204534E-10
   196.973  0.143650E-11  0.602654E-10  0.802569E-11 -0.265491E-10
   200.003  0.260491E-10  0.609404E-10 -0.610166E-11 -0.256058E-10
   203.034  0.473145E-10  0.503415E-10 -0.183730E-10 -0.178459E-10
   206.064  0.601923E-10  0.313938E-10 -0.257521E-10 -0.520669E-11
   209.094  0.617563E-10  0.909266E-11 -0.264794E-10  0.914928E-11
   212.124  0.519164E-10 -0.107767E-10 -0.205078E-10  0.216297E-10
   215.154  0.334239E-10 -0.231094E-10 -0.950155E-11  0.291125E-10
   218.185  0.111605E-10 -0.247648E-10  0.359853E-11  0.297242E-10
   221.215 -0.909985E-11 -0.153447E-10  0.153284E-10  0.233012E-10
   224.245 -0.221425E-10  0.272608E-11  0.225814E-10  0.114227E-10
   227.275 -0.246121E-10  0.248303E-10  0.233939E-10 -0.299091E-11
   230.305 -0.158352E-10  0.453349E-10  0.174386E-10 -0.164099E-10
   233.336  0.203545E-11  0.590102E-10  0.610498E-11 -0.255723E-10
   236.366  0.245840E-10  0.623383E-10 -0.784899E-11 -0.282877E-10
   239.396  0.462526E-10  0.543758E-10 -0.209853E-10 -0.239693E-10
   242.426  0.617333E-10  0.369684E-10 -0.300377E-10 -0.137635E-10
   245.456  0.672819E-10  0.142651E-10 -0.327167E-10 -0.254681E-12
   248.487  0.616240E-10 -0.833327E-11 -0.282673E-10  0.131822E-10
   251.517  0.462356E-10 -0.255219E-10 -0.176460E-10  0.232131E-10
   254.547  0.249376E-10 -0.333973E-10 -0.327835E-11  0.273565E-10
   257.577  0.291688E-11 -0.303930E-10  0.115382E-10  0.245749E-10
   260.607 -0.145715E-10 -0.176230E-10  0.234345E-10  0.155064E-10
   263.638 -0.234957E-10  0.144523E-11  0.297758E-10  0.228622E-11
   266.668 -0.220069E-10  0.218886E-10  0.292763E-10 -0.119907E-10
   269.698 -0.108427E-10  0.385667E-10  0.222768E-10 -0.240282E-10
   272.728  0.691778E-11  0.473843E-10  0.106285E-10 -0.311206E-10
   275.758  0.266664E-10  0.462645E-10 -0.278489E-11 -0.317830E-10
   278.789  0.434332E-10  0.356021E-10 -0.147576E-10 -0.260753E-10
   281.819  0.531108E-10  0.180982E-10 -0.225325E-10 -0.155465E-10
   284.849  0.534299E-10 -0.196528E-11 -0.244404E-10 -0.282536E-11
   287.879  0.444565E-10 -0.198150E-10 -0.202626E-10  0.903580E-11
   290.909  0.285030E-10 -0.313624E-10 -0.112345E-10  0.172986E-10
   293.940  0.949299E-11 -0.341708E-10  0.297057E-12  0.201773E-10
   296.970 -0.804340E-11 -0.279902E-10  0.114706E-10  0.172302E-10
   300.000 -0.100432E-10 -0.736896E-11  0.980530E-11  0.470864E-11

         1   # Prop. dir.: 1 forw; 2 backw
        21   # Sector #
     2.800   # Range in km 
 Depth (m)         Re(u)         Im(u)         Re(w)         Im(w)
     0.010  0.152772E-13  0.344813E-13   0.00000       0.00000    
     3.040  0.927439E-11  0.209083E-10   0.00000       0.00000    
     6.070  0.184215E-10  0.413843E-10   0.00000       0.00000    
     9.101  0.273760E-10  0.611421E-10   0.00000       0.00000    
    12.131  0.360428E-10  0.798421E-10   0.00000       0.00000    
    15.161  0.443287E-10  0.971663E-10   0.00000       0.00000    
    18.191  0.521418E-10  0.112824E-09   0.00000       0.00000    
    21.221  0.593944E-10  0.126559E-09   0.00000       0.00000    
    24.252  0.660015E-10  0.138152E-09   0.00000       0.00000    
    27.282  0.718839E-10  0.147426E-09   0.00000       0.00000    
    30.312  0.769668E-10  0.154246E-09   0.00000       0.00000    
    33.342  0.811826E-10  0.158519E-09   0.00000       0.00000    
    36.372  0.844710E-10  0.160200E-09   0.00000       0.00000    
    39.403  0.867756E-10  0.159279E-09   0.00000       0.00000    
    42.433  0.880448E-10  0.155780E-09   0.00000       0.00000    
    45.463  0.882226E-10  0.149746E-09   0.00000       0.00000    
    48.493  0.872381E-10  0.141224E-09   0.00000       0.00000    
    51.523  0.849772E-10  0.130221E-09   0.00000       0.00000    
    54.554  0.812330E-10  0.116643E-09   0.00000       0.00000    
    57.584  0.756123E-10  0.100175E-09   0.00000       0.00000    
    60.614  0.556267E-10  0.679083E-10  0.763562E-11 -0.231194E-11
    63.644  0.487216E-10  0.515609E-10  0.788192E-11 -0.267424E-11
    66.674  0.389380E-10  0.317326E-10  0.777876E-11 -0.261444E-11
    69.705 -0.119812E-10  0.123599E-09  0.830823E-10 -0.608740E-10
    72.735  0.155354E-10  0.134982E-09  0.604136E-10 -0.632434E-10
    75.765  0.428260E-10  0.127836E-09  0.353028E-10 -0.566964E-10
    78.795  0.645706E-10  0.105301E-09  0.136090E-10 -0.426991E-10
    81.825  0.753517E-10  0.726555E-10 -0.599676E-12 -0.239328E-10
    84.856  0.720133E-10  0.370430E-10 -0.534471E-11 -0.420314E-11
    87.886  0.548932E-10  0.610859E-11 -0.956820E-12  0.123324E-10
    90.916  0.279023E-10 -0.137618E-10  0.101095E-10  0.221921E-10
    93.946 -0.244919E-11 -0.190002E-10  0.239268E-10  0.234809E-10
    96.976 -0.287396E-10 -0.973238E-11  0.360939E-10  0.164052E-10
   100.007 -0.445705E-10  0.102866E-10  0.428436E-10  0.324110E-11
   103.037 -0.462267E-10  0.346657E-10  0.419809E-10 -0.122392E-10
   106.067 -0.336329E-10  0.560439E-10  0.334108E-10 -0.257330E-10
   109.097 -0.103545E-10  0.679947E-10  0.191238E-10 -0.335094E-10
   112.127  0.173387E-10  0.666716E-10  0.264439E-11 -0.333634E-10
   115.158  0.421044E-10  0.517761E-10 -0.119111E-10 -0.251728E-10
   118.188  0.574231E-10  0.266016E-10 -0.209205E-10 -0.109162E-10
   121.218  0.592666E-10 -0.285165E-11 -0.222051E-10  0.584854E-11
   124.248  0.471093E-10 -0.294492E-10 -0.155968E-10  0.209103E-10
   127.278  0.240322E-10 -0.467761E-10 -0.298001E-11  0.304914E-10
   130.309 -0.410375E-11 -0.507880E-10  0.121993E-10  0.322163E-10
   133.339 -0.301903E-10 -0.408358E-10  0.258269E-10  0.257116E-10
   136.369 -0.477079E-10 -0.198076E-10  0.341820E-10  0.126899E-10
   139.399 -0.523932E-10  0.664183E-11  0.348947E-10 -0.350357E-11
   142.429 -0.433096E-10  0.315676E-10  0.275489E-10 -0.187584E-10
   145.460 -0.230487E-10  0.485285E-10  0.137827E-10 -0.292534E-10
   148.490  0.297443E-11  0.532371E-10 -0.313912E-11 -0.324273E-10
   151.520  0.279453E-10  0.446382E-10 -0.191667E-10 -0.276166E-10
   154.550  0.454188E-10  0.251485E-10 -0.304994E-10 -0.162002E-10
   157.580  0.509743E-10  0.421891E-15 -0.345498E-10 -0.121913E-11
   160.611  0.433318E-10 -0.241315E-10 -0.305863E-10  0.134247E-10
   163.641  0.246508E-10 -0.408608E-10 -0.198981E-10  0.239818E-10
   166.671 -0.610330E-13 -0.457310E-10 -0.543976E-11  0.278171E-10
   169.701 -0.242617E-10 -0.373445E-10  0.894368E-11  0.240739E-10
   172.732 -0.415716E-10 -0.176974E-10  0.195118E-10  0.138740E-10
   175.762 -0.474103E-10  0.835964E-11  0.235848E-10  0.527784E-14
   178.792 -0.401548E-10  0.343865E-10  0.202163E-10 -0.138141E-10
   181.822 -0.215266E-10  0.540124E-10  0.104145E-10 -0.239043E-10
   184.852  0.388143E-11  0.625599E-10 -0.314143E-11 -0.275723E-10
   187.883  0.298103E-10  0.582168E-10 -0.168096E-10 -0.237976E-10
   190.913  0.499505E-10  0.424625E-10 -0.269341E-10 -0.134820E-10
   193.943  0.595531E-10  0.196473E-10 -0.307872E-10  0.795826E-12
   196.973  0.566207E-10 -0.415889E-11 -0.272652E-10  0.154532E-10
   200.003  0.423797E-10 -0.227403E-10 -0.171605E-10  0.268263E-10
   203.034  0.209214E-10 -0.313286E-10 -0.294802E-11  0.321046E-10
   206.064 -0.188530E-11 -0.278045E-10  0.118570E-10  0.300391E-10
   209.094 -0.199211E-10 -0.132053E-10  0.235998E-10  0.212447E-10
   212.124 -0.283867E-10  0.858040E-11  0.294138E-10  0.802652E-11
   215.154 -0.250155E-10  0.318440E-10  0.279390E-10 -0.622209E-11
   218.185 -0.106197E-10  0.505385E-10  0.196502E-10 -0.178893E-10
   221.215  0.111555E-10  0.598269E-10  0.672005E-11 -0.240594E-10
   224.245  0.347984E-10  0.573003E-10 -0.754647E-11 -0.232392E-10
   227.275  0.543593E-10  0.435597E-10 -0.195539E-10 -0.157165E-10
   230.305  0.649690E-10  0.220252E-10 -0.263197E-10 -0.346277E-11
   233.336  0.640576E-10 -0.196910E-11 -0.262094E-10  0.103843E-10
   236.366  0.519743E-10 -0.225495E-10 -0.193234E-10  0.223257E-10
   239.396  0.318520E-10 -0.347906E-10 -0.744214E-11  0.293822E-10
   242.426  0.877344E-11 -0.359355E-10  0.644707E-11  0.298316E-10
   245.456 -0.115411E-10 -0.260463E-10  0.189162E-10  0.236166E-10
   248.487 -0.241787E-10 -0.792880E-11  0.269569E-10  0.123332E-10
   251.517 -0.262451E-10  0.136292E-10  0.287189E-10 -0.119619E-11
   254.547 -0.175418E-10  0.331025E-10  0.239451E-10 -0.136447E-10
   257.577 -0.547483E-12  0.456260E-10  0.140014E-10 -0.220133E-10
   260.607  0.202693E-10  0.481918E-10  0.150334E-11 -0.243633E-10
   263.638  0.396212E-10  0.403472E-10 -0.103586E-10 -0.202711E-10
   266.668  0.527414E-10  0.242326E-10 -0.186178E-10 -0.108969E-10
   269.698  0.565574E-10  0.396954E-11 -0.212559E-10  0.133707E-11
   272.728  0.504015E-10 -0.154306E-10 -0.176744E-10  0.133723E-10
   275.758  0.360995E-10 -0.293434E-10 -0.880362E-11  0.222754E-10
   278.789  0.174316E-10 -0.346709E-10  0.316567E-11  0.259498E-10
   281.819 -0.876556E-12 -0.305622E-10  0.153524E-10  0.236189E-10
   284.849 -0.143626E-10 -0.185451E-10  0.249052E-10  0.159729E-10
   287.879 -0.199293E-10 -0.206259E-11  0.296925E-10  0.495229E-11
   290.909 -0.165649E-10  0.144542E-10  0.287943E-10 -0.676637E-11
   293.940 -0.551768E-11  0.267211E-10  0.226796E-10 -0.164447E-10
   296.970  0.100976E-10  0.316588E-10  0.130423E-10 -0.219484E-10
   300.000  0.130704E-10  0.140546E-10  0.117079E-11 -0.111203E-10

         1   # Prop. dir.: 1 forw; 2 backw
        22   # Sector #
     2.940   # Range in km 
 Depth (m)         Re(u)         Im(u)         Re(w)         Im(w)
     0.010  0.307720E-13  0.811435E-14   0.00000       0.00000    
     3.040  0.186617E-10  0.491506E-11   0.00000       0.00000    
     6.070  0.369570E-10  0.970281E-11   0.00000       0.00000    
     9.101  0.546493E-10  0.142703E-10   0.00000       0.00000    
    12.131  0.714504E-10  0.185115E-10   0.00000       0.00000    
    15.161  0.870883E-10  0.223251E-10   0.00000       0.00000    
    18.191  0.101311E-09  0.256168E-10   0.00000       0.00000    
    21.221  0.113890E-09  0.282998E-10   0.00000       0.00000    
    24.252  0.124626E-09  0.302985E-10   0.00000       0.00000    
    27.282  0.133348E-09  0.315489E-10   0.00000       0.00000    
    30.312  0.139920E-09  0.320018E-10   0.00000       0.00000    
    33.342  0.144235E-09  0.316240E-10   0.00000       0.00000    
    36.372  0.146217E-09  0.304016E-10   0.00000       0.00000    
    39.403  0.145811E-09  0.283415E-10   0.00000       0.00000    
    42.433  0.142973E-09  0.254767E-10   0.00000       0.00000    
    45.463  0.137644E-09  0.218716E-10   0.00000       0.00000    
    48.493  0.129696E-09  0.176338E-10   0.00000       0.00000    
    51.523  0.118849E-09  0.129360E-10   0.00000       0.00000    
    54.554  0.865612E-10  0.628307E-11  0.388902E-11 -0.515140E-11
    57.584  0.741811E-10  0.198756E-11  0.393935E-11 -0.566361E-11
    60.614  0.742275E-10  0.765603E-10  0.154950E-10 -0.712949E-10
    63.644  0.986383E-10  0.728114E-10  0.222969E-11 -0.678939E-10
    66.674  0.115630E-09  0.586321E-10 -0.910642E-11 -0.560248E-10
    69.705  0.122642E-09  0.360582E-10 -0.159196E-10 -0.392831E-10
    72.735  0.117713E-09  0.992307E-11 -0.165365E-10 -0.213596E-10
    75.765  0.101176E-09 -0.137632E-10 -0.108387E-10 -0.589047E-11
    78.795  0.761275E-10 -0.295499E-10 -0.373012E-12  0.413292E-11
    81.825  0.478512E-10 -0.340410E-10  0.120397E-10  0.702756E-11
    84.856  0.225215E-10 -0.268004E-10  0.230539E-10  0.283113E-11
    87.886  0.560998E-11 -0.104539E-10  0.296901E-10 -0.670113E-11
    90.916  0.455988E-12  0.100218E-10  0.301257E-10 -0.185388E-10
    93.946  0.739241E-11  0.286259E-10  0.241753E-10 -0.291508E-10
    96.976  0.236608E-10  0.399218E-10  0.133365E-10 -0.354127E-10
   100.007  0.441371E-10  0.404652E-10  0.391752E-12 -0.354067E-10
   103.037  0.626734E-10  0.296999E-10 -0.113268E-10 -0.289077E-10
   106.067  0.737012E-10  0.100866E-10 -0.188150E-10 -0.174286E-10
   109.097  0.736742E-10 -0.135585E-10 -0.201845E-10 -0.381289E-11
   112.127  0.619755E-10 -0.353403E-10 -0.151558E-10  0.851590E-11
   115.158  0.410546E-10 -0.498340E-10 -0.512887E-11  0.164520E-10
   118.188  0.157660E-10 -0.535006E-10  0.718625E-11  0.180180E-10
   121.218 -0.791141E-11 -0.455982E-10  0.184780E-10  0.128780E-10
   124.248 -0.244367E-10 -0.283552E-10  0.256951E-10  0.242298E-11
   127.278 -0.301402E-10 -0.636576E-11  0.268373E-10 -0.105929E-10
   130.309 -0.241572E-10  0.146256E-10  0.214668E-10 -0.227652E-10
   133.339 -0.862159E-11  0.292294E-10  0.108118E-10 -0.309162E-10
   136.369  0.119200E-10  0.338082E-10 -0.256227E-11 -0.329064E-10
   139.399  0.317159E-10  0.274040E-10 -0.154258E-10 -0.281710E-10
   142.429  0.453160E-10  0.119556E-10 -0.247224E-10 -0.178479E-10
   145.460  0.489842E-10 -0.824118E-11 -0.283527E-10 -0.446454E-11
   148.490  0.416479E-10 -0.276829E-10 -0.257011E-10  0.872740E-11
   151.520  0.251458E-10 -0.411120E-10 -0.177703E-10  0.185953E-10
   154.550  0.371458E-11 -0.448896E-10 -0.689301E-11  0.229250E-10
   157.580 -0.171398E-10 -0.379325E-10  0.389877E-11  0.209724E-10
   160.611 -0.320892E-10 -0.219717E-10  0.116795E-10  0.136245E-10
   163.641 -0.373657E-10 -0.107510E-11  0.143976E-10  0.313638E-11
   166.671 -0.317238E-10  0.194373E-10  0.114057E-10 -0.748375E-11
   169.701 -0.167331E-10  0.343937E-10  0.361445E-11 -0.152755E-10
   172.732  0.366018E-11  0.401194E-10 -0.676408E-11 -0.181026E-10
   175.762  0.241870E-10  0.353819E-10 -0.168150E-10 -0.152028E-10
   178.792  0.396386E-10  0.216918E-10 -0.237002E-10 -0.736894E-11
   181.822  0.462164E-10  0.288361E-11 -0.254139E-10  0.327945E-11
   184.852  0.425000E-10 -0.159028E-10 -0.213160E-10  0.138719E-10
   187.883  0.297832E-10 -0.295749E-10 -0.123048E-10  0.215542E-10
   190.913  0.117002E-10 -0.344137E-10 -0.585103E-12  0.242452E-10
   193.943 -0.675286E-11 -0.290337E-10  0.109051E-10  0.211844E-10
   196.973 -0.205411E-10 -0.147263E-10  0.192590E-10  0.131298E-10
   200.003 -0.259094E-10  0.489337E-11  0.223564E-10  0.215541E-11
   203.034 -0.213542E-10  0.248414E-10  0.194138E-10 -0.889481E-11
   206.064 -0.799943E-11  0.400675E-10  0.111882E-10 -0.171521E-10
   209.094  0.107154E-10  0.467629E-10 -0.217839E-12 -0.204723E-10
   212.124  0.299460E-10  0.433391E-10 -0.118965E-10 -0.179940E-10
   215.154  0.447129E-10  0.308229E-10 -0.208797E-10 -0.103615E-10
   218.185  0.511967E-10  0.125739E-10 -0.248959E-10  0.442107E-12
   221.215  0.477221E-10 -0.659742E-11 -0.229441E-10  0.116086E-10
   224.245  0.351824E-10 -0.216760E-10 -0.155389E-10  0.202280E-10
   227.275  0.167979E-10 -0.287324E-10 -0.456769E-11  0.240363E-10
   230.305 -0.272265E-11 -0.259210E-10  0.720129E-11  0.219939E-10
   233.336 -0.183935E-10 -0.139356E-10  0.168315E-10  0.145483E-10
   236.366 -0.262259E-10  0.418931E-11  0.219666E-10  0.351605E-11
   239.396 -0.242322E-10  0.238715E-10  0.214244E-10 -0.838318E-11
   242.426 -0.129117E-10  0.401584E-10  0.154873E-10 -0.182181E-10
   245.456  0.490294E-11  0.489847E-10  0.581809E-11 -0.235870E-10
   248.487  0.247883E-10  0.481858E-10 -0.497216E-11 -0.232189E-10
   251.517  0.418638E-10  0.380154E-10 -0.139917E-10 -0.172852E-10
   254.547  0.520248E-10  0.210433E-10 -0.187997E-10 -0.734691E-11
   257.577  0.529565E-10  0.146920E-11 -0.180160E-10  0.404488E-11
   260.607  0.446795E-10 -0.159604E-10 -0.116596E-10  0.139907E-10
   263.638  0.294947E-10 -0.271538E-10 -0.113318E-11  0.199631E-10
   266.668  0.113580E-10 -0.296831E-10  0.111350E-10  0.204228E-10
   269.698 -0.515007E-11 -0.233545E-10  0.222981E-10  0.151830E-10
   272.728 -0.159868E-10 -0.102023E-10  0.297906E-10  0.543267E-11
   275.758 -0.186458E-10  0.607575E-11  0.319464E-10 -0.657670E-11
   278.789 -0.127469E-10  0.210871E-10  0.283833E-10 -0.180991E-10
   281.819 -0.771210E-13  0.308628E-10  0.200661E-10 -0.265694E-10
   284.849  0.159122E-10  0.328392E-10  0.903990E-11 -0.302168E-10
   287.879  0.310098E-10  0.264634E-10 -0.209350E-11 -0.284696E-10
   290.909  0.413136E-10  0.132777E-10 -0.108199E-10 -0.220546E-10
   293.940  0.441913E-10 -0.351784E-11 -0.153152E-10 -0.127794E-10
   296.970  0.388966E-10 -0.199031E-10 -0.148627E-10 -0.305629E-11
   300.000  0.133493E-10 -0.160262E-10 -0.499308E-11  0.235317E-11

         1   # Prop. dir.: 1 forw; 2 backw
        23   # Sector #
     3.080   # Range in km 
 Depth (m)         Re(u)         Im(u)         Re(w)         Im(w)
     0.010  0.230621E-13 -0.110181E-13   0.00000       0.00000    
     3.040  0.139829E-10 -0.668661E-11   0.00000       0.00000    
     6.070  0.276796E-10 -0.132729E-10   0.00000       0.00000    
     9.101  0.408993E-10 -0.197032E-10   0.00000       0.00000    
    12.131  0.534087E-10 -0.259002E-10   0.00000       0.00000    
    15.161  0.649824E-10 -0.317876E-10   0.00000       0.00000    
    18.191  0.754029E-10 -0.372897E-10   0.00000       0.00000    
    21.221  0.844673E-10 -0.423312E-10   0.00000       0.00000    
    24.252  0.919855E-10 -0.468358E-10   0.00000       0.00000    
    27.282  0.977870E-10 -0.507249E-10   0.00000       0.00000    
    30.312  0.101720E-09 -0.539103E-10   0.00000       0.00000    
    33.342  0.103654E-09 -0.562856E-10   0.00000       0.00000    
    36.372  0.103468E-09 -0.577042E-10   0.00000       0.00000    
    39.403  0.101044E-09 -0.579389E-10   0.00000       0.00000    
    42.433  0.962365E-10 -0.566043E-10   0.00000       0.00000    
    45.463  0.888132E-10 -0.530082E-10   0.00000       0.00000    
    48.493  0.660005E-10 -0.422288E-10 -0.581106E-13 -0.429398E-11
    51.523  0.565213E-10 -0.365550E-10  0.298607E-12 -0.547842E-11
    54.554  0.105525E-09 -0.314292E-11 -0.429111E-10 -0.492140E-10
    57.584  0.115631E-09 -0.223828E-10 -0.457376E-10 -0.398752E-10
    60.614  0.115798E-09 -0.407704E-10 -0.424363E-10 -0.273696E-10
    63.644  0.106091E-09 -0.569035E-10 -0.343514E-10 -0.150022E-10
    66.674  0.883228E-10 -0.676351E-10 -0.229046E-10 -0.552901E-11
    69.705  0.660727E-10 -0.702439E-10 -0.101196E-10 -0.786880E-12
    72.735  0.439738E-10 -0.637784E-10  0.155952E-11 -0.135679E-11
    75.765  0.265977E-10 -0.495850E-10  0.980573E-11 -0.646890E-11
    78.795  0.172965E-10 -0.310662E-10  0.130176E-10 -0.142236E-10
    81.825  0.173432E-10 -0.128129E-10  0.107726E-10 -0.220938E-10
    84.856  0.256120E-10  0.604146E-12  0.397662E-11 -0.275855E-10
    87.886  0.388890E-10  0.584929E-11 -0.534001E-11 -0.288870E-10
    90.916  0.527311E-10  0.170932E-11 -0.145296E-10 -0.253365E-10
    93.946  0.626423E-10 -0.105822E-10 -0.210033E-10 -0.175858E-10
    96.976  0.652585E-10 -0.276688E-10 -0.228967E-10 -0.741956E-11
   100.007  0.592239E-10 -0.449539E-10 -0.195501E-10  0.272208E-11
   103.037  0.455317E-10 -0.578082E-10 -0.116754E-10  0.103894E-10
   106.067  0.272395E-10 -0.627790E-10 -0.116656E-11  0.137670E-10
   109.097  0.864249E-11 -0.584859E-10  0.939459E-11  0.121462E-10
   112.127 -0.587485E-11 -0.459656E-10  0.174093E-10  0.610346E-11
   115.158 -0.130023E-10 -0.283807E-10  0.209315E-10 -0.266112E-11
   118.188 -0.113744E-10 -0.101739E-10  0.191628E-10 -0.117782E-10
   121.218 -0.191808E-11  0.410799E-11  0.126455E-10 -0.188355E-10
   124.248  0.124084E-10  0.110044E-10  0.310459E-11 -0.220089E-10
   127.278  0.274136E-10  0.903633E-11 -0.701433E-11 -0.205315E-10
   130.309  0.387910E-10 -0.928352E-12 -0.151891E-10 -0.148780E-10
   133.339  0.432602E-10 -0.159309E-10 -0.194749E-10 -0.661974E-11
   136.369  0.394250E-10 -0.317239E-10 -0.189985E-10  0.201127E-11
   139.399  0.281289E-10 -0.439050E-10 -0.141627E-10  0.872775E-11
   142.429  0.122109E-10 -0.490804E-10 -0.651346E-11  0.118018E-10
   145.460 -0.426443E-11 -0.457486E-10  0.169382E-11  0.105247E-10
   148.490 -0.170978E-10 -0.346775E-10  0.810886E-11  0.538948E-11
   151.520 -0.230736E-10 -0.186784E-10  0.109187E-10 -0.204946E-11
   154.550 -0.208110E-10 -0.184230E-11  0.932969E-11 -0.960187E-11
   157.580 -0.111227E-10  0.115541E-10  0.377243E-11 -0.150373E-10
   160.611  0.321094E-11  0.181829E-10 -0.422160E-11 -0.166913E-10
   163.641  0.181872E-10  0.165391E-10 -0.124373E-10 -0.139202E-10
   166.671  0.296494E-10  0.732647E-11 -0.185743E-10 -0.728390E-11
   169.701  0.343911E-10 -0.674208E-11 -0.208670E-10  0.159357E-11
   172.732  0.310059E-10 -0.216722E-10 -0.185604E-10  0.104477E-10
   175.762  0.202598E-10 -0.332500E-10 -0.121184E-10  0.169710E-10
   178.792  0.488933E-11 -0.381527E-10 -0.310804E-11  0.194262E-10
   181.822 -0.111189E-10 -0.348209E-10  0.620820E-11  0.171131E-10
   184.852 -0.235745E-10 -0.238601E-10  0.134638E-10  0.105661E-10
   187.883 -0.291825E-10 -0.787379E-11  0.168084E-10  0.142987E-11
   190.913 -0.264044E-10  0.922675E-11  0.153937E-10 -0.795680E-11
   193.943 -0.158609E-10  0.232495E-10  0.959702E-11 -0.151592E-10
   196.973 -0.169109E-12  0.308174E-10  0.926480E-12 -0.182739E-10
   200.003  0.167365E-10  0.302433E-10 -0.836922E-11 -0.164218E-10
   203.034  0.306222E-10  0.219608E-10 -0.158824E-10 -0.997817E-11
   206.064  0.380464E-10  0.840055E-11 -0.196697E-10 -0.483662E-12
   209.094  0.372411E-10 -0.665100E-11 -0.187539E-10  0.974494E-11
   212.124  0.285569E-10 -0.190390E-10 -0.133767E-10  0.181996E-10
   215.154  0.143610E-10 -0.253177E-10 -0.493589E-11  0.228157E-10
   218.185 -0.158027E-11 -0.236360E-10  0.437406E-11  0.224903E-10
   221.215 -0.150727E-10 -0.142076E-10  0.121255E-10  0.173566E-10
   224.245 -0.225656E-10  0.753874E-12  0.162800E-10  0.874371E-11
   227.275 -0.220483E-10  0.176102E-10  0.157098E-10 -0.116549E-11
   230.305 -0.135466E-10  0.322329E-10  0.104871E-10 -0.988870E-11
   233.336  0.904920E-12  0.410524E-10  0.186755E-11 -0.152695E-10
   236.366  0.177978E-10  0.419557E-10 -0.802531E-11 -0.160155E-10
   239.396  0.330507E-10  0.348011E-10 -0.167323E-10 -0.120152E-10
   242.426  0.430391E-10  0.214318E-10 -0.220727E-10 -0.435453E-11
   245.456  0.454975E-10  0.518575E-11 -0.226848E-10  0.496420E-11
   248.487  0.400591E-10 -0.995985E-11 -0.183594E-10  0.135301E-10
   251.517  0.283123E-10 -0.203907E-10 -0.100835E-10  0.191258E-10
   254.547  0.133633E-10 -0.237471E-10  0.210106E-12  0.202741E-10
   257.577 -0.970046E-12 -0.194842E-10  0.101238E-10  0.165938E-10
   260.607 -0.111262E-10 -0.896509E-11  0.173812E-10  0.887929E-11
   263.638 -0.146817E-10  0.492376E-11  0.203749E-10 -0.110996E-11
   266.668 -0.109254E-10  0.185274E-10  0.185390E-10 -0.110922E-10
   269.698 -0.993364E-12  0.283513E-10  0.124611E-10 -0.188250E-10
   272.728  0.124625E-10  0.319256E-10  0.371013E-11 -0.226452E-10
   275.758  0.259725E-10  0.283909E-10 -0.556874E-11 -0.218533E-10
   278.789  0.361327E-10  0.186678E-10 -0.131883E-10 -0.168540E-10
   281.819  0.404471E-10  0.517960E-11 -0.174478E-10 -0.902442E-11
   284.849  0.379192E-10 -0.878894E-11 -0.175262E-10 -0.348921E-12
   287.879  0.292554E-10 -0.199277E-10 -0.136483E-10  0.708182E-11
   290.909  0.166397E-10 -0.257175E-10 -0.699038E-11  0.115819E-10
   293.940  0.315151E-11 -0.250240E-10  0.643942E-12  0.122641E-10
   296.970 -0.801862E-11 -0.183320E-10  0.729079E-11  0.922701E-11
   300.000 -0.717799E-11 -0.378613E-11  0.565842E-11  0.174552E-11

         1   # Prop. dir.: 1 forw; 2 backw
        24   # Sector #
     3.220   # Range in km 
 Depth (m)         Re(u)         Im(u)         Re(w)         Im(w)
     0.010  0.118580E-13 -0.178776E-13   0.00000       0.00000    
     3.040  0.718267E-11 -0.108397E-10   0.00000       0.00000    
     6.070  0.141754E-10 -0.214545E-10   0.00000       0.00000    
     9.101  0.208400E-10 -0.316937E-10   0.00000       0.00000    
    12.131  0.270219E-10 -0.413753E-10   0.00000       0.00000    
    15.161  0.325777E-10 -0.503220E-10   0.00000       0.00000    
    18.191  0.373806E-10 -0.583635E-10   0.00000       0.00000    
    21.221  0.413244E-10 -0.653341E-10   0.00000       0.00000    
    24.252  0.443328E-10 -0.710684E-10   0.00000       0.00000    
    27.282  0.463701E-10 -0.753912E-10   0.00000       0.00000    
    30.312  0.474606E-10 -0.780946E-10   0.00000       0.00000    
    33.342  0.477248E-10 -0.788922E-10   0.00000       0.00000    
    36.372  0.474423E-10 -0.773341E-10   0.00000       0.00000    
    39.403  0.361994E-10 -0.622020E-10 -0.224882E-12 -0.143650E-11
    42.433  0.348885E-10 -0.577317E-10 -0.907286E-12 -0.232961E-11
    45.463  0.342553E-10 -0.500038E-10 -0.138121E-11 -0.339172E-11
    48.493  0.710318E-10 -0.646588E-10 -0.456102E-10  0.384879E-11
    51.523  0.656531E-10 -0.783132E-10 -0.417496E-10  0.718416E-11
    54.554  0.574061E-10 -0.871442E-10 -0.340322E-10  0.933468E-11
    57.584  0.458630E-10 -0.908227E-10 -0.245028E-10  0.977275E-11
    60.614  0.327355E-10 -0.886956E-10 -0.149031E-10  0.789202E-11
    63.644  0.207117E-10 -0.809353E-10 -0.684748E-11  0.362856E-11
    66.674  0.124073E-10 -0.689517E-10 -0.163121E-11 -0.234844E-11
    69.705  0.952071E-11 -0.552171E-10  0.492014E-13 -0.877006E-11
    72.735  0.123161E-10 -0.426913E-10 -0.171227E-11 -0.141138E-10
    75.765  0.195316E-10 -0.340592E-10 -0.602616E-11 -0.170362E-10
    78.795  0.287106E-10 -0.310187E-10 -0.114113E-10 -0.167613E-10
    81.825  0.368614E-10 -0.338203E-10 -0.161610E-10 -0.133166E-10
    84.856  0.412619E-10 -0.411923E-10 -0.187764E-10 -0.754968E-11
    87.886  0.401943E-10 -0.506709E-10 -0.183505E-10 -0.920847E-12
    90.916  0.334125E-10 -0.592514E-10 -0.148011E-10  0.487217E-11
    93.946  0.222175E-10 -0.641826E-10 -0.888722E-11  0.833807E-11
    96.976  0.911864E-11 -0.637000E-10 -0.200460E-11  0.858545E-11
   100.007 -0.282871E-11 -0.574944E-10  0.418559E-11  0.555988E-11
   103.037 -0.108330E-10 -0.467947E-10  0.819795E-11  0.614004E-13
   106.067 -0.131101E-10 -0.340410E-10  0.911592E-11 -0.646405E-11
   109.097 -0.935930E-11 -0.222352E-10  0.683285E-11 -0.123036E-10
   112.127 -0.848188E-12 -0.141397E-10  0.207684E-11 -0.159280E-10
   115.158  0.991989E-11 -0.115411E-10 -0.378704E-11 -0.163931E-10
   118.188  0.198664E-10 -0.147719E-10 -0.912396E-11 -0.135873E-10
   121.218  0.261514E-10 -0.226199E-10 -0.124683E-10 -0.825847E-11
   124.248  0.269249E-10 -0.326503E-10 -0.129169E-10 -0.181339E-11
   127.278  0.218149E-10 -0.418526E-10 -0.103715E-10  0.405665E-11
   130.309  0.120241E-10 -0.474431E-10 -0.556587E-11  0.782555E-11
   133.339  0.810430E-14 -0.476083E-10  0.131228E-12  0.853742E-11
   136.369 -0.111780E-10 -0.419882E-10  0.508326E-11  0.606000E-11
   139.399 -0.186926E-10 -0.317753E-10  0.782769E-11  0.111932E-11
   142.429 -0.206619E-10 -0.193984E-10  0.747338E-11 -0.489398E-11
   145.460 -0.166777E-10 -0.787787E-11  0.394814E-11 -0.102946E-10
   148.490 -0.790527E-11 -0.216877E-13 -0.197021E-11 -0.135517E-10
   151.520  0.322734E-11  0.232263E-11 -0.884838E-11 -0.136975E-10
   154.550  0.136732E-10 -0.123775E-11 -0.149675E-10 -0.105876E-10
   157.580  0.205756E-10 -0.953223E-11 -0.187711E-10 -0.494387E-11
   160.611  0.220253E-10 -0.201326E-10 -0.192733E-10  0.183162E-11
   163.641  0.175662E-10 -0.299914E-10 -0.163198E-10  0.802252E-11
   166.671  0.831668E-11 -0.362449E-10 -0.106324E-10  0.120483E-10
   169.701 -0.332535E-11 -0.369678E-10 -0.362564E-11  0.128799E-10
   172.732 -0.143142E-10 -0.316792E-10  0.295868E-11  0.103117E-10
   175.762 -0.217582E-10 -0.214705E-10  0.750143E-11  0.501869E-11
   178.792 -0.236794E-10 -0.871701E-11  0.892479E-11 -0.161647E-11
   181.822 -0.195302E-10  0.354298E-11  0.697022E-11 -0.786105E-11
   184.852 -0.103362E-10  0.124030E-10  0.226328E-11 -0.120812E-10
   187.883  0.157568E-11  0.158454E-10 -0.385139E-11 -0.131661E-10
   190.913  0.131852E-10  0.132634E-10 -0.966133E-11 -0.108159E-10
   193.943  0.215655E-10  0.561209E-11 -0.135328E-10 -0.562028E-11
   196.973  0.246410E-10 -0.484667E-11 -0.143369E-10  0.109299E-11
   200.003  0.217186E-10 -0.151373E-10 -0.117447E-10  0.759981E-11
   203.034  0.136576E-10 -0.223445E-10 -0.631655E-11  0.122226E-10
   206.064  0.263670E-11 -0.243657E-10  0.637649E-12  0.137615E-10
   209.094 -0.841691E-11 -0.204471E-10  0.739073E-11  0.118019E-10
   212.124 -0.165851E-10 -0.113681E-10  0.122364E-10  0.682147E-11
   215.154 -0.197057E-10  0.770324E-12  0.139231E-10  0.702216E-13
   218.185 -0.169164E-10  0.130931E-10  0.119710E-10 -0.674500E-11
   221.215 -0.885899E-11  0.226891E-10  0.679545E-11 -0.118895E-10
   224.245  0.250293E-11  0.273480E-10 -0.395623E-12 -0.140347E-10
   227.275  0.143991E-10  0.261088E-10 -0.790053E-11 -0.125871E-10
   230.305  0.239643E-10  0.194813E-10 -0.139431E-10 -0.783152E-11
   233.336  0.289611E-10  0.929339E-11 -0.171063E-10 -0.854969E-12
   236.366  0.283292E-10 -0.179274E-11 -0.166720E-10  0.672790E-11
   239.396  0.224278E-10 -0.109622E-10 -0.127835E-10  0.131750E-10
   242.426  0.129142E-10 -0.159535E-10 -0.639575E-11  0.170419E-10
   245.456  0.230082E-11 -0.156081E-10  0.974276E-12  0.175268E-10
   248.487 -0.669207E-11 -0.101303E-10  0.762701E-11  0.146500E-10
   251.517 -0.118177E-10 -0.100027E-11  0.120962E-10  0.922899E-11
   254.547 -0.118482E-10  0.942965E-11  0.134972E-10  0.265822E-11
   257.577 -0.684991E-11  0.185432E-10  0.117221E-10 -0.344612E-11
   260.607  0.187100E-11  0.241158E-10  0.744111E-11 -0.764586E-11
   263.638  0.121293E-10  0.248528E-10  0.191070E-11 -0.902621E-11
   266.668  0.214275E-10  0.206798E-10 -0.335458E-11 -0.740170E-11
   269.698  0.275821E-10  0.127204E-10 -0.696476E-11 -0.333738E-11
   272.728  0.292505E-10  0.297890E-11 -0.799419E-11  0.201577E-11
   275.758  0.262327E-10 -0.618350E-11 -0.619590E-11  0.722447E-11
   278.789  0.194796E-10 -0.126431E-10 -0.204193E-11  0.109373E-10
   281.819  0.108184E-10 -0.150286E-10  0.341628E-11  0.122177E-10
   284.849  0.247065E-11 -0.130318E-10  0.882653E-11  0.107638E-10
   287.879 -0.350965E-11 -0.744614E-11  0.128816E-10  0.696462E-11
   290.909 -0.573737E-11  0.675369E-13  0.146443E-10  0.178329E-11
   293.940 -0.381563E-11  0.742042E-11  0.137709E-10 -0.349978E-11
   296.970  0.159786E-11  0.126260E-10  0.105822E-10 -0.761555E-11
   300.000  0.449277E-11  0.714406E-11  0.298281E-11 -0.481206E-11

         1   # Prop. dir.: 1 forw; 2 backw
        25   # Sector #
     3.360   # Range in km 
 Depth (m)         Re(u)         Im(u)         Re(w)         Im(w)
     0.010  0.377871E-14 -0.176241E-13   0.00000       0.00000    
     3.040  0.228397E-11 -0.106764E-10   0.00000       0.00000    
     6.070  0.448084E-11 -0.210830E-10   0.00000       0.00000    
     9.101  0.652222E-11 -0.310273E-10   0.00000       0.00000    
    12.131  0.833911E-11 -0.402928E-10   0.00000       0.00000    
    15.161  0.987356E-11 -0.486804E-10   0.00000       0.00000    
    18.191  0.110842E-10 -0.560140E-10   0.00000       0.00000    
    21.221  0.119546E-10 -0.621478E-10   0.00000       0.00000    
    24.252  0.125069E-10 -0.669742E-10   0.00000       0.00000    
    27.282  0.128263E-10 -0.704380E-10   0.00000       0.00000    
    30.312  0.131069E-10 -0.725573E-10   0.00000       0.00000    
    33.342  0.940782E-11 -0.592210E-10  0.269818E-12 -0.219967E-11
    36.372  0.933252E-11 -0.586474E-10 -0.832028E-12 -0.238555E-11
    39.403  0.305453E-10 -0.731526E-10 -0.799231E-11  0.360272E-11
    42.433  0.262999E-10 -0.753922E-10 -0.876699E-11  0.619217E-11
    45.463  0.217584E-10 -0.787925E-10 -0.832682E-11  0.752743E-11
    48.493  0.158040E-10 -0.810140E-10 -0.652172E-11  0.783438E-11
    51.523  0.892690E-11 -0.806088E-10 -0.386621E-11  0.694524E-11
    54.554  0.240830E-11 -0.771038E-10 -0.119265E-11  0.480652E-11
    57.584 -0.235509E-11 -0.709795E-10  0.659414E-12  0.169381E-11
    60.614 -0.437480E-11 -0.634703E-10  0.110049E-11 -0.179833E-11
    63.644 -0.339740E-11 -0.561952E-10 -0.457335E-13 -0.490726E-11
    66.674  0.920067E-14 -0.507063E-10 -0.250018E-11 -0.691907E-11
    69.705  0.460990E-11 -0.480667E-10 -0.561123E-11 -0.737689E-11
    72.735  0.884282E-11 -0.485657E-10 -0.853703E-11 -0.621853E-11
    75.765  0.112482E-10 -0.516451E-10 -0.104768E-10 -0.380403E-11
    78.795  0.108669E-10 -0.560547E-10 -0.108887E-10 -0.826445E-12
    81.825  0.750136E-11 -0.601933E-10 -0.963595E-11  0.186979E-11
    84.856  0.176787E-11 -0.625385E-10 -0.702369E-11  0.351274E-11
    87.886 -0.507020E-11 -0.620521E-10 -0.371666E-11  0.360847E-11
    90.916 -0.114435E-10 -0.584541E-10 -0.561823E-12  0.207251E-11
    93.946 -0.158974E-10 -0.522866E-10  0.163598E-11 -0.747679E-12
    96.976 -0.174793E-10 -0.447607E-10  0.232505E-11 -0.416513E-11
   100.007 -0.159879E-10 -0.374254E-10  0.134821E-11 -0.733487E-11
   103.037 -0.120190E-10 -0.317505E-10 -0.102203E-11 -0.947613E-11
   106.067 -0.679807E-11 -0.287376E-10 -0.416279E-11 -0.100747E-10
   109.097 -0.184509E-11 -0.286618E-10 -0.727136E-11 -0.901298E-11
   112.127  0.143510E-11 -0.310129E-10 -0.958033E-11 -0.659233E-11
   115.158  0.212683E-11 -0.346482E-10 -0.105588E-10 -0.344464E-11
   118.188  0.416606E-13 -0.381130E-10 -0.100461E-10 -0.356880E-12
   121.218 -0.424225E-11 -0.400405E-10 -0.828319E-11  0.194205E-11
   124.248 -0.954779E-11 -0.395209E-10 -0.583526E-11  0.297469E-11
   127.278 -0.144266E-10 -0.363420E-10 -0.342857E-11  0.263679E-11
   130.309 -0.175562E-10 -0.310365E-10 -0.174690E-11  0.121509E-11
   133.339 -0.180991E-10 -0.247254E-10 -0.124440E-11 -0.702119E-12
   136.369 -0.159272E-10 -0.188046E-10 -0.202518E-11 -0.239621E-11
   139.399 -0.116517E-10 -0.145591E-10 -0.382196E-11 -0.322354E-11
   142.429 -0.645109E-11 -0.128109E-10 -0.607823E-11 -0.279831E-11
   145.460 -0.174788E-11 -0.136977E-10 -0.810994E-11 -0.110284E-11
   148.490  0.118162E-11 -0.166392E-10 -0.930147E-11  0.150470E-11
   151.520  0.155499E-11 -0.204998E-10 -0.928084E-11  0.438720E-11
   154.550 -0.703176E-12 -0.239034E-10 -0.802582E-11  0.680336E-11
   157.580 -0.494027E-11 -0.256104E-10 -0.587145E-11  0.811291E-11
   160.611 -0.995203E-11 -0.248590E-10 -0.341702E-11  0.795550E-11
   163.641 -0.143079E-10 -0.215723E-10 -0.135780E-11  0.635488E-11
   166.671 -0.167381E-10 -0.163810E-10 -0.288114E-12  0.371916E-11
   169.701 -0.164773E-10 -0.104511E-10 -0.530321E-12  0.736272E-12
   172.732 -0.134737E-10 -0.516664E-11 -0.203697E-11 -0.180742E-11
   175.762 -0.840624E-11 -0.175186E-11 -0.439437E-11 -0.323737E-11
   178.792 -0.250683E-11 -0.934742E-12 -0.692775E-11 -0.317326E-11
   181.822  0.276591E-11 -0.274371E-11 -0.888086E-11 -0.163453E-11
   184.852  0.611405E-11 -0.649180E-11 -0.962212E-11  0.959977E-12
   187.883  0.674565E-11 -0.109535E-10 -0.882195E-11  0.389880E-11
   190.913  0.458639E-11 -0.146872E-10 -0.655326E-11  0.636364E-11
   193.943  0.301286E-12 -0.164184E-10 -0.328595E-11  0.764543E-11
   196.973 -0.487861E-11 -0.153808E-10  0.223689E-12  0.733356E-11
   200.003 -0.947922E-11 -0.115261E-10  0.312211E-11  0.542865E-11
   203.034 -0.121702E-10 -0.554566E-11  0.467699E-11  0.234822E-11
   206.064 -0.121141E-10  0.130180E-11  0.446872E-11 -0.117646E-11
   209.094 -0.918664E-11  0.751097E-11  0.250447E-11 -0.428607E-11
   212.124 -0.401021E-11  0.117163E-10 -0.775152E-12 -0.621339E-11
   215.154  0.220709E-11  0.130424E-10 -0.459984E-11 -0.648132E-11
   218.185  0.798388E-11  0.113284E-10 -0.805752E-11 -0.502711E-11
   221.215  0.119479E-10  0.716731E-11 -0.103190E-10 -0.222075E-11
   224.245  0.131883E-10  0.175250E-11 -0.108427E-10  0.122701E-11
   227.275  0.114879E-10 -0.342881E-11 -0.950667E-11  0.444369E-11
   230.305  0.737464E-11 -0.697519E-11 -0.663588E-11  0.661521E-11
   233.336  0.198230E-11 -0.792521E-11 -0.291745E-11  0.719078E-11
   236.366 -0.324280E-11 -0.599646E-11  0.773869E-12  0.602072E-11
   239.396 -0.691249E-11 -0.164840E-11  0.359525E-11  0.339244E-11
   242.426 -0.804831E-11  0.404321E-11  0.494493E-11 -0.438580E-13
   245.456 -0.632519E-11  0.966767E-11  0.460851E-11 -0.344045E-11
   248.487 -0.214550E-11  0.138411E-10  0.280630E-11 -0.596569E-11
   251.517  0.347160E-11  0.155560E-10  0.130798E-12 -0.701206E-11
   254.547  0.915592E-11  0.144310E-10 -0.260830E-11 -0.634632E-11
   257.577  0.135366E-10  0.107971E-10 -0.459189E-11 -0.416464E-11
   260.607  0.155867E-10  0.560353E-11 -0.519898E-11 -0.104021E-11
   263.638  0.148760E-10  0.168691E-12 -0.416224E-11  0.222311E-11
   266.668  0.116694E-10 -0.415661E-11 -0.163296E-11  0.479226E-11
   269.698  0.684831E-11 -0.632897E-11  0.185928E-11  0.601193E-11
   272.728  0.167967E-11 -0.586822E-11  0.554138E-11  0.556444E-11
   275.758 -0.250705E-11 -0.296770E-11  0.859007E-11  0.354392E-11
   278.789 -0.465301E-11  0.156586E-11  0.103361E-10  0.427407E-12
   281.819 -0.422895E-11  0.652453E-11  0.104275E-10 -0.304893E-11
   284.849 -0.135737E-11  0.106068E-10  0.891175E-11 -0.607542E-11
   287.879  0.322929E-11  0.127429E-10  0.621857E-11 -0.797049E-11
   290.909  0.838103E-11  0.123562E-10  0.304735E-11 -0.834737E-11
   293.940  0.128217E-10  0.949738E-11  0.189797E-12 -0.720484E-11
   296.970  0.154665E-10  0.482200E-11 -0.166818E-11 -0.492133E-11
   300.000  0.784280E-11 -0.291014E-12 -0.105779E-11 -0.107672E-11

         1   # Prop. dir.: 1 forw; 2 backw
        26   # Sector #
     3.500   # Range in km 
 Depth (m)         Re(u)         Im(u)         Re(w)         Im(w)
     0.010  0.473621E-15 -0.137536E-13   0.00000       0.00000    
     3.040  0.283869E-12 -0.832955E-11   0.00000       0.00000    
     6.070  0.542656E-12 -0.164332E-10   0.00000       0.00000    
     9.101  0.756620E-12 -0.241461E-10   0.00000       0.00000    
    12.131  0.912761E-12 -0.312856E-10   0.00000       0.00000    
    15.161  0.101230E-11 -0.376848E-10   0.00000       0.00000    
    18.191  0.108183E-11 -0.431967E-10   0.00000       0.00000    
    21.221  0.119337E-11 -0.477016E-10   0.00000       0.00000    
    24.252  0.150148E-11 -0.511147E-10   0.00000       0.00000    
    27.282  0.216561E-12 -0.437593E-10  0.255973E-12 -0.118369E-11
    30.312  0.563310E-12 -0.445514E-10 -0.760384E-12 -0.129123E-11
    33.342  0.913580E-12 -0.601102E-10 -0.142481E-11  0.425709E-11
    36.372 -0.101891E-11 -0.607372E-10 -0.213881E-11  0.385194E-11
    39.403 -0.231649E-11 -0.616962E-10 -0.248250E-11  0.308150E-11
    42.433 -0.382018E-11 -0.624748E-10 -0.238440E-11  0.225791E-11
    45.463 -0.568796E-11 -0.626954E-10 -0.192714E-11  0.138383E-11
    48.493 -0.771582E-11 -0.621590E-10 -0.128864E-11  0.398216E-12
    51.523 -0.956525E-11 -0.608686E-10 -0.681052E-12 -0.709486E-12
    54.554 -0.109333E-10 -0.590132E-10 -0.292761E-12 -0.186554E-11
    57.584 -0.116662E-10 -0.569097E-10 -0.241689E-12 -0.293018E-11
    60.614 -0.118099E-10 -0.549120E-10 -0.549656E-12 -0.374523E-11
    63.644 -0.115965E-10 -0.533161E-10 -0.114328E-11 -0.418954E-11
    66.674 -0.113746E-10 -0.522800E-10 -0.188038E-11 -0.422378E-11
    69.705 -0.115085E-10 -0.517847E-10 -0.259396E-11 -0.391081E-11
    72.735 -0.122710E-10 -0.516428E-10 -0.314165E-11 -0.340553E-11
    75.765 -0.137626E-10 -0.515517E-10 -0.344673E-11 -0.291688E-11
    78.795 -0.158766E-10 -0.511795E-10 -0.351945E-11 -0.265204E-11
    81.825 -0.183200E-10 -0.502551E-10 -0.345304E-11 -0.275855E-11
    84.856 -0.206849E-10 -0.486440E-10 -0.339550E-11 -0.327998E-11
    87.886 -0.225510E-10 -0.463860E-10 -0.350523E-11 -0.413799E-11
    90.916 -0.235936E-10 -0.436843E-10 -0.390269E-11 -0.514617E-11
    93.946 -0.236661E-10 -0.408552E-10 -0.463180E-11 -0.605282E-11
    96.976 -0.228390E-10 -0.382424E-10 -0.564200E-11 -0.660201E-11
   100.007 -0.213827E-10 -0.361293E-10 -0.679582E-11 -0.659742E-11
   103.037 -0.196995E-10 -0.346640E-10 -0.790085E-11 -0.595232E-11
   106.067 -0.182227E-10 -0.338225E-10 -0.875702E-11 -0.471283E-11
   109.097 -0.173089E-10 -0.334170E-10 -0.920715E-11 -0.304818E-11
   112.127 -0.171496E-10 -0.331484E-10 -0.917646E-11 -0.121094E-11
   115.158 -0.177278E-10 -0.326874E-10 -0.869092E-11  0.522938E-12
   118.188 -0.188269E-10 -0.317648E-10 -0.786943E-11  0.191840E-11
   121.218 -0.200926E-10 -0.302452E-10 -0.689132E-11  0.283358E-11
   124.248 -0.211284E-10 -0.281635E-10 -0.594911E-11  0.324668E-11
   127.278 -0.216025E-10 -0.257160E-10 -0.519878E-11  0.325138E-11
   130.309 -0.213344E-10 -0.232073E-10 -0.472155E-11  0.302259E-11
   133.339 -0.203422E-10 -0.209655E-10 -0.450767E-11  0.276272E-11
   136.369 -0.188348E-10 -0.192515E-10 -0.446644E-11  0.264343E-11
   139.399 -0.171538E-10 -0.181843E-10 -0.445966E-11  0.275897E-11
   142.429 -0.156771E-10 -0.177056E-10 -0.434848E-11  0.310378E-11
   145.460 -0.147149E-10 -0.175926E-10 -0.404018E-11  0.358000E-11
   148.490 -0.144216E-10 -0.175186E-10 -0.352080E-11  0.403249E-11
   151.520 -0.147510E-10 -0.171435E-10 -0.286379E-11  0.430076E-11
   154.550 -0.154669E-10 -0.162124E-10 -0.221083E-11  0.427256E-11
   157.580 -0.162069E-10 -0.146323E-10 -0.173003E-11  0.392347E-11
   160.611 -0.165831E-10 -0.125070E-10 -0.156259E-11  0.333022E-11
   163.641 -0.162925E-10 -0.101159E-10 -0.177354E-11  0.265331E-11
   166.671 -0.152075E-10 -0.784303E-11 -0.232157E-11  0.209300E-11
   169.701 -0.134181E-10 -0.607116E-11 -0.305820E-11  0.183054E-11
   172.732 -0.112159E-10 -0.507137E-11 -0.375875E-11  0.197175E-11
   175.762 -0.901908E-11 -0.491754E-11 -0.417859E-11  0.250918E-11
   178.792 -0.725919E-11 -0.545162E-11 -0.412075E-11  0.331520E-11
   181.822 -0.625889E-11 -0.631212E-11 -0.349602E-11  0.416971E-11
   184.852 -0.613495E-11 -0.702156E-11 -0.235917E-11  0.481650E-11
   187.883 -0.675480E-11 -0.711191E-11 -0.908441E-12  0.503413E-11
   190.913 -0.776087E-11 -0.625548E-11  0.553422E-12  0.470173E-11
   193.943 -0.865983E-11 -0.436557E-11  0.168912E-11  0.384144E-11
   196.973 -0.895421E-11 -0.163767E-11  0.221107E-11  0.262378E-11
   200.003 -0.828298E-11  0.148356E-11  0.195831E-11  0.133245E-11
   203.034 -0.653191E-11  0.440629E-11  0.945541E-12  0.295646E-12
   206.064 -0.388227E-11  0.653892E-11 -0.630120E-12 -0.199398E-12
   209.094 -0.781516E-12  0.744516E-11 -0.242867E-11  0.134876E-13
   212.124  0.216005E-11  0.696602E-11 -0.404486E-11  0.926444E-12
   215.154  0.432204E-11  0.527448E-11 -0.510593E-11  0.234734E-11
   218.185  0.523717E-11  0.284556E-11 -0.536482E-11  0.393724E-11
   221.215  0.472162E-11  0.346216E-12 -0.476493E-11  0.528810E-11
   224.245  0.293632E-11 -0.152879E-11 -0.345916E-11  0.602247E-11
   227.275  0.360205E-12 -0.223373E-11 -0.177650E-11  0.589018E-11
   230.305 -0.232067E-11 -0.151537E-11 -0.143399E-12  0.483730E-11
   233.336 -0.438176E-11  0.515662E-12  0.102115E-11  0.302821E-11
   236.366 -0.524370E-11  0.340609E-11  0.141119E-11  0.814199E-12
   239.396 -0.462336E-11  0.647061E-11  0.912852E-12 -0.134586E-11
   242.426 -0.261144E-11  0.896485E-11 -0.363419E-12 -0.299345E-11
   245.456  0.344842E-12  0.102766E-10 -0.210657E-11 -0.378076E-11
   248.487  0.355176E-11  0.100855E-10 -0.387931E-11 -0.355584E-11
   251.517  0.624439E-11  0.844943E-11 -0.522502E-11 -0.240070E-11
   254.547  0.778269E-11  0.579295E-11 -0.578066E-11 -0.612373E-12
   257.577  0.781719E-11  0.280067E-11 -0.536705E-11  0.136882E-11
   260.607  0.638053E-11  0.242012E-12 -0.403362E-11  0.306606E-11
   263.638  0.388073E-11 -0.122755E-11 -0.204638E-11  0.408144E-11
   266.668  0.996896E-12 -0.123630E-11  0.178011E-12  0.419072E-11
   269.698 -0.149590E-11  0.206966E-12  0.217520E-11  0.339397E-11
   272.728 -0.292699E-11  0.271523E-11  0.354700E-11  0.190963E-11
   275.758 -0.290302E-11  0.562403E-11  0.405690E-11  0.113971E-12
   278.789 -0.140848E-11  0.816463E-11  0.368349E-11 -0.155777E-11
   281.819  0.119275E-11  0.966380E-11  0.261822E-11 -0.272314E-11
   284.849  0.425496E-11  0.971801E-11  0.120933E-11 -0.314773E-11
   287.879  0.702136E-11  0.829557E-11 -0.133385E-12 -0.280008E-11
   290.909  0.882267E-11  0.574112E-11 -0.104703E-11 -0.185210E-11
   293.940  0.925093E-11  0.268049E-11 -0.130915E-11 -0.626338E-12
   296.970  0.826278E-11 -0.147197E-12 -0.891841E-12  0.495604E-12
   300.000  0.309257E-11 -0.104324E-11  0.187948E-13  0.589239E-12

         1   # Prop. dir.: 1 forw; 2 backw
        27   # Sector #
     3.640   # Range in km 
 Depth (m)         Re(u)         Im(u)         Re(w)         Im(w)
     0.010 -0.360960E-15 -0.937989E-14   0.00000       0.00000    
     3.040 -0.217326E-12 -0.568205E-11   0.00000       0.00000    
     6.070 -0.418888E-12 -0.112196E-10   0.00000       0.00000    
     9.101 -0.577051E-12 -0.165136E-10   0.00000       0.00000    
    12.131 -0.631398E-12 -0.214629E-10   0.00000       0.00000    
    15.161 -0.457655E-12 -0.259975E-10   0.00000       0.00000    
    18.191 -0.113910E-11 -0.245676E-10  0.224381E-11 -0.102265E-11
    21.221 -0.842034E-12 -0.273039E-10  0.140299E-11 -0.108620E-11
    24.252  0.906983E-13 -0.296371E-10  0.522660E-12 -0.121051E-11
    27.282 -0.121597E-10 -0.369633E-10  0.817763E-11  0.577771E-11
    30.312 -0.121745E-10 -0.356666E-10  0.617972E-11  0.359218E-11
    33.342 -0.104042E-10 -0.361533E-10  0.390426E-11  0.178874E-11
    36.372 -0.847701E-11 -0.381336E-10  0.191149E-11  0.840060E-12
    39.403 -0.743637E-11 -0.411301E-10  0.582735E-12  0.681986E-12
    42.433 -0.782489E-11 -0.444688E-10  0.104179E-12  0.970665E-12
    45.463 -0.970951E-11 -0.473966E-10  0.447310E-12  0.126823E-11
    48.493 -0.127398E-10 -0.492539E-10  0.138289E-11  0.118901E-11
    51.523 -0.162732E-10 -0.496398E-10  0.253905E-11  0.504738E-12
    54.554 -0.195572E-10 -0.485138E-10  0.349426E-11 -0.801958E-12
    57.584 -0.219322E-10 -0.462053E-10  0.388316E-11 -0.254231E-11
    60.614 -0.230050E-10 -0.433240E-10  0.348783E-11 -0.438015E-11
    63.644 -0.227491E-10 -0.405976E-10  0.229075E-11 -0.592808E-11
    66.674 -0.215057E-10 -0.386768E-10  0.475771E-12 -0.685487E-11
    69.705 -0.198868E-10 -0.379635E-10 -0.162301E-11 -0.697610E-11
    72.735 -0.186046E-10 -0.385063E-10 -0.361040E-11 -0.630386E-11
    75.765 -0.182755E-10 -0.399902E-10 -0.513310E-11 -0.504322E-11
    78.795 -0.192505E-10 -0.418262E-10 -0.596953E-11 -0.353657E-11
    81.825 -0.215181E-10 -0.433125E-10 -0.608267E-11 -0.217182E-11
    84.856 -0.247051E-10 -0.438245E-10 -0.562265E-11 -0.127921E-11
    87.886 -0.281762E-10 -0.429828E-10 -0.487968E-11 -0.104451E-11
    90.916 -0.312028E-10 -0.407534E-10 -0.420088E-11 -0.146180E-11
    93.946 -0.331575E-10 -0.374528E-10 -0.389397E-11 -0.233790E-11
    96.976 -0.336792E-10 -0.336585E-10 -0.414453E-11 -0.334662E-11
   100.007 -0.327657E-10 -0.300507E-10 -0.496829E-11 -0.411765E-11
   103.037 -0.307691E-10 -0.272283E-10 -0.621075E-11 -0.433562E-11
   106.067 -0.282956E-10 -0.255491E-10 -0.759318E-11 -0.382304E-11
   109.097 -0.260384E-10 -0.250414E-10 -0.879082E-11 -0.258472E-11
   112.127 -0.245897E-10 -0.254050E-10 -0.952144E-11 -0.803405E-12
   115.158 -0.242840E-10 -0.261051E-10 -0.961980E-11  0.121152E-11
   118.188 -0.251145E-10 -0.265278E-10 -0.907755E-11  0.310688E-11
   121.218 -0.267452E-10 -0.261551E-10 -0.803917E-11  0.457695E-11
   124.248 -0.286133E-10 -0.247101E-10 -0.675604E-11  0.543792E-11
   127.278 -0.300930E-10 -0.222307E-10 -0.551317E-11  0.566624E-11
   130.309 -0.306726E-10 -0.190539E-10 -0.454966E-11  0.539143E-11
   133.339 -0.300973E-10 -0.157135E-10 -0.399596E-11  0.484706E-11
   136.369 -0.284360E-10 -0.127849E-10 -0.384502E-11  0.429558E-11
   139.399 -0.260551E-10 -0.107178E-10 -0.396474E-11  0.394894E-11
   142.429 -0.235079E-10 -0.970828E-11 -0.414696E-11  0.390810E-11
   145.460 -0.213718E-10 -0.964449E-11 -0.417763E-11  0.413848E-11
   148.490 -0.200795E-10 -0.101422E-10 -0.390709E-11  0.448731E-11
   151.520 -0.197940E-10 -0.106595E-10 -0.329920E-11  0.473733E-11
   154.550 -0.203623E-10 -0.106571E-10 -0.244530E-11  0.467995E-11
   157.580 -0.213603E-10 -0.975837E-11 -0.153797E-11  0.418627E-11
   160.611 -0.222169E-10 -0.786229E-11 -0.813089E-12  0.325433E-11
   163.641 -0.223813E-10 -0.517662E-11 -0.476840E-12  0.201876E-11
   166.671 -0.214847E-10 -0.216112E-11 -0.639430E-12  0.719084E-12
   169.701 -0.194509E-10  0.602797E-12 -0.127550E-11 -0.364021E-12
   172.732 -0.165226E-10  0.257948E-11 -0.222341E-11 -0.986511E-12
   175.762 -0.131973E-10  0.343504E-11 -0.322469E-11 -0.101049E-11
   178.792 -0.100880E-10  0.313672E-11 -0.399296E-11 -0.445070E-12
   181.822 -0.775202E-11  0.196694E-11 -0.429311E-11  0.553568E-12
   184.852 -0.653300E-11  0.446808E-12 -0.400825E-11  0.172320E-11
   187.883 -0.646431E-11 -0.809853E-12 -0.317493E-11  0.276668E-11
   190.913 -0.726005E-11 -0.127037E-11 -0.197615E-11  0.343304E-11
   193.943 -0.839743E-11 -0.635973E-12 -0.693254E-12  0.358568E-11
   196.973 -0.926689E-11  0.107059E-11  0.370239E-12  0.323827E-11
   200.003 -0.934778E-11  0.350818E-11  0.971773E-12  0.254800E-11
   203.034 -0.835930E-11  0.611089E-11  0.996755E-12  0.176804E-11
   206.064 -0.634337E-11  0.824640E-11  0.490287E-12  0.117242E-11
   209.094 -0.365552E-11  0.939460E-11 -0.355471E-12  0.974932E-12
   212.124 -0.866129E-12  0.929577E-11 -0.125510E-11  0.126499E-11
   215.154  0.140083E-11  0.802671E-11 -0.191018E-11  0.197900E-11
   218.185  0.264572E-11  0.598231E-11 -0.209359E-11  0.291594E-11
   221.215  0.263736E-11  0.376742E-11 -0.171421E-11  0.379288E-11
   224.245  0.148237E-11  0.202931E-11 -0.843887E-12  0.432546E-11
   227.275 -0.400430E-12  0.127736E-11  0.301362E-12  0.431047E-11
   230.305 -0.239379E-11  0.174059E-11  0.142075E-11  0.368733E-11
   233.336 -0.385224E-11  0.330342E-11  0.221256E-11  0.256073E-11
   236.366 -0.428139E-11  0.553759E-11  0.245922E-11  0.117758E-11
   239.396 -0.347545E-11  0.782142E-11  0.208979E-11 -0.136237E-12
   242.426 -0.157493E-11  0.951307E-11  0.120258E-11 -0.106186E-11
   245.456  0.972083E-12  0.101293E-10  0.411639E-13 -0.137321E-11
   248.487  0.353416E-11  0.948023E-11 -0.106962E-11 -0.998610E-12
   251.517  0.547141E-11  0.772103E-11 -0.181039E-11 -0.416438E-13
   254.547  0.631239E-11  0.530913E-11 -0.195307E-11  0.124488E-11
   257.577  0.588357E-11  0.287632E-11 -0.142233E-11  0.252469E-11
   260.607  0.435577E-11  0.105424E-11 -0.316111E-12  0.346563E-11
   263.638  0.219526E-11  0.300142E-12  0.112018E-11  0.382572E-11
   266.668  0.336085E-13  0.772892E-12  0.255836E-11  0.351430E-11
   269.698 -0.150674E-11  0.229207E-11  0.367348E-11  0.261236E-11
   272.728 -0.198248E-11  0.439125E-11  0.422748E-11  0.134720E-11
   275.758 -0.124782E-11  0.644933E-11  0.412830E-11  0.291565E-13
   278.789  0.510495E-12  0.786251E-11  0.344890E-11 -0.103191E-11
   281.819  0.283047E-11  0.820890E-11  0.240225E-11 -0.160740E-11
   284.849  0.510643E-11  0.735964E-11  0.127991E-11 -0.160633E-11
   287.879  0.675763E-11  0.550770E-11  0.372072E-12 -0.109286E-11
   290.909  0.738598E-11  0.310654E-11 -0.108834E-12 -0.261435E-12
   293.940  0.687913E-11  0.739127E-12 -0.802900E-13  0.622067E-12
   296.970  0.543207E-11 -0.104579E-11  0.395622E-12  0.129598E-11
   300.000  0.174110E-11 -0.941597E-12  0.568926E-12  0.786906E-12

         1   # Prop. dir.: 1 forw; 2 backw
        28   # Sector #
     3.780   # Range in km 
 Depth (m)         Re(u)         Im(u)         Re(w)         Im(w)
     0.010 -0.122277E-14 -0.621472E-14   0.00000       0.00000    
     3.040 -0.747362E-12 -0.377399E-11   0.00000       0.00000    
     6.070 -0.151726E-11 -0.751234E-11   0.00000       0.00000    
     9.101 -0.234772E-11 -0.112355E-10   0.00000       0.00000    
    12.131 -0.244150E-11 -0.117125E-10  0.218729E-11 -0.617333E-12
    15.161 -0.319037E-11 -0.144471E-10  0.178038E-11 -0.723884E-12
    18.191 -0.174115E-10 -0.200923E-10  0.123357E-10 -0.413086E-11
    21.221 -0.150459E-10 -0.163708E-10  0.109284E-10 -0.563748E-11
    24.252 -0.120261E-10 -0.153041E-10  0.837171E-11 -0.619268E-11
    27.282 -0.891173E-11 -0.165198E-10  0.560730E-11 -0.577584E-11
    30.312 -0.651531E-11 -0.195888E-10  0.330510E-11 -0.451044E-11
    33.342 -0.556455E-11 -0.238278E-10  0.190260E-11 -0.271124E-11
    36.372 -0.645021E-11 -0.283325E-10  0.158158E-11 -0.835252E-12
    39.403 -0.909568E-11 -0.321512E-10  0.225194E-11  0.629175E-12
    42.433 -0.129668E-10 -0.345118E-10  0.358309E-11  0.129157E-11
    45.463 -0.172121E-10 -0.350168E-10  0.509023E-11  0.965870E-12
    48.493 -0.208909E-10 -0.337453E-10  0.625881E-11 -0.277017E-12
    51.523 -0.232268E-10 -0.312300E-10  0.667706E-11 -0.212595E-11
    54.554 -0.238163E-10 -0.283137E-10  0.614146E-11 -0.411140E-11
    57.584 -0.227373E-10 -0.259218E-10  0.470746E-11 -0.573035E-11
    60.614 -0.205265E-10 -0.248129E-10  0.267122E-11 -0.658075E-11
    63.644 -0.180344E-10 -0.253753E-10  0.487684E-12 -0.646912E-11
    66.674 -0.161943E-10 -0.275220E-10 -0.135352E-11 -0.546195E-11
    69.705 -0.157696E-10 -0.307138E-10 -0.246080E-11 -0.386757E-11
    72.735 -0.171463E-10 -0.341042E-10 -0.264662E-11 -0.215248E-11
    75.765 -0.202271E-10 -0.367660E-10 -0.197828E-11 -0.815057E-12
    78.795 -0.244536E-10 -0.379385E-10 -0.760015E-12 -0.249958E-12
    81.825 -0.289540E-10 -0.372316E-10  0.548774E-12 -0.639747E-12
    84.856 -0.327712E-10 -0.347281E-10  0.145714E-11 -0.190257E-11
    87.886 -0.351167E-10 -0.309610E-10  0.157508E-11 -0.370995E-11
    90.916 -0.355762E-10 -0.267707E-10  0.719419E-12 -0.557015E-11
    93.946 -0.342172E-10 -0.230802E-10 -0.103496E-11 -0.695481E-11
    96.976 -0.315671E-10 -0.206506E-10 -0.337212E-11 -0.743581E-11
   100.007 -0.284707E-10 -0.198805E-10 -0.581549E-11 -0.679610E-11
   103.037 -0.258641E-10 -0.207038E-10 -0.785051E-11 -0.508565E-11
   106.067 -0.245268E-10 -0.226116E-10 -0.905640E-11 -0.260840E-11
   109.097 -0.248774E-10 -0.247925E-10 -0.921292E-11  0.155932E-12
   112.127 -0.268675E-10 -0.263522E-10 -0.835389E-11  0.267382E-11
   115.158 -0.300000E-10 -0.265526E-10 -0.675406E-11  0.449154E-11
   118.188 -0.334663E-10 -0.250080E-10 -0.485397E-11  0.534520E-11
   121.218 -0.363645E-10 -0.217844E-10 -0.314317E-11  0.521914E-11
   124.248 -0.379386E-10 -0.173779E-10 -0.203338E-11  0.433831E-11
   127.278 -0.377761E-10 -0.125794E-10 -0.175525E-11  0.309847E-11
   130.309 -0.359092E-10 -0.826066E-11 -0.230540E-11  0.195387E-11
   133.339 -0.327981E-10 -0.514401E-11 -0.345703E-11  0.129347E-11
   136.369 -0.291976E-10 -0.361425E-11 -0.482945E-11  0.133882E-11
   139.399 -0.259490E-10 -0.362446E-11 -0.599710E-11  0.209043E-11
   142.429 -0.237520E-10 -0.471931E-11 -0.660747E-11  0.333579E-11
   145.460 -0.229792E-10 -0.616810E-11 -0.647638E-11  0.471548E-11
   148.490 -0.235821E-10 -0.717006E-11 -0.563487E-11  0.582792E-11
   151.520 -0.251136E-10 -0.707545E-11 -0.431607E-11  0.634375E-11
   154.550 -0.268584E-10 -0.556240E-11 -0.288675E-11  0.609813E-11
   157.580 -0.280344E-10 -0.272193E-11 -0.174283E-11  0.513611E-11
   160.611 -0.280102E-10  0.970836E-12 -0.119830E-11  0.369968E-11
   163.641 -0.264786E-10  0.478997E-11 -0.139780E-11  0.216038E-11
   166.671 -0.235386E-10  0.795957E-11 -0.227670E-11  0.917101E-12
   169.701 -0.196674E-10  0.986633E-11 -0.357914E-11  0.287150E-12
   172.732 -0.155876E-10  0.102262E-10 -0.492858E-11  0.420687E-12
   175.762 -0.120704E-10  0.915995E-11 -0.593120E-11  0.126151E-11
   178.792 -0.972584E-11  0.715804E-11 -0.628381E-11  0.256470E-11
   181.822 -0.884012E-11  0.494515E-11 -0.585646E-11  0.396552E-11
   184.852 -0.930184E-11  0.328193E-11 -0.472778E-11  0.508052E-11
   187.883 -0.106377E-10  0.275857E-11 -0.316339E-11  0.561285E-11
   190.913 -0.121456E-10  0.363577E-11 -0.154347E-11  0.543295E-11
   193.943 -0.130897E-10  0.577625E-11 -0.259598E-12  0.461305E-11
   196.973 -0.129021E-10  0.868421E-11  0.391601E-12  0.340588E-11
   200.003 -0.113376E-10  0.116416E-10  0.288835E-12  0.217407E-11
   203.034 -0.854006E-11  0.139026E-10 -0.480625E-12  0.128949E-11
   206.064 -0.500234E-11  0.148954E-10 -0.164379E-11  0.102972E-11
   209.094 -0.143232E-11  0.143739E-10 -0.281451E-11  0.149997E-11
   212.124  0.143803E-11  0.124828E-10 -0.359605E-11  0.260121E-11
   215.154  0.304862E-11  0.971617E-11 -0.368667E-11  0.405304E-11
   218.185  0.315972E-11  0.678461E-11 -0.295977E-11  0.546504E-11
   221.215  0.191349E-11  0.442568E-11 -0.149819E-11  0.643771E-11
   224.245 -0.206556E-12  0.321062E-11  0.426182E-12  0.666589E-11
   227.275 -0.250605E-11  0.339739E-11  0.242160E-11  0.601798E-11
   230.305 -0.426400E-11  0.486936E-11  0.407561E-11  0.457027E-11
   233.336 -0.492093E-11  0.717359E-11  0.505821E-11  0.258784E-11
   236.366 -0.422108E-11  0.964706E-11  0.520223E-11  0.458060E-12
   239.396 -0.227161E-11  0.115950E-10  0.454086E-11 -0.140565E-11
   242.426  0.494466E-12  0.124732E-10  0.329335E-11 -0.266442E-11
   245.456  0.344006E-11  0.120260E-10  0.180445E-11 -0.313324E-11
   248.487  0.589575E-11  0.103445E-10  0.454118E-12 -0.281909E-11
   251.517  0.733476E-11  0.783164E-11 -0.438129E-12 -0.190972E-11
   254.547  0.750513E-11  0.508661E-11 -0.689683E-12 -0.717596E-12
   257.577  0.648487E-11  0.274147E-11 -0.293027E-12  0.404932E-12
   260.607  0.464883E-11  0.129508E-11  0.592519E-12  0.115626E-11
   263.638  0.255822E-11  0.987943E-12  0.169146E-11  0.135857E-11
   266.668  0.805623E-12  0.175056E-11  0.269010E-11  0.994984E-12
   269.698 -0.142073E-12  0.323563E-11  0.332043E-11  0.203159E-12
   272.728 -0.610482E-13  0.492274E-11  0.342763E-11 -0.771062E-12
   275.758  0.981956E-12  0.626468E-11  0.300449E-11 -0.164567E-11
   278.789  0.266142E-11  0.683447E-11  0.218514E-11 -0.218016E-11
   281.819  0.449273E-11  0.643411E-11  0.120174E-11 -0.223799E-11
   284.849  0.596979E-11  0.513697E-11  0.317591E-12 -0.181809E-11
   287.879  0.670247E-11  0.325560E-11 -0.244772E-12 -0.104853E-11
   290.909  0.651646E-11  0.124657E-11 -0.360896E-12 -0.146027E-12
   293.940  0.549053E-11 -0.419042E-12 -0.326773E-13  0.646374E-12
   296.970  0.392360E-11 -0.138342E-11  0.618482E-12  0.112564E-11
   300.000  0.112197E-11 -0.746659E-12  0.695155E-12  0.590588E-12
