
         1   # Prop. dir.: 1 forw; 2 backw
         2   # Sector #
     5.000   # Range in km 
 Depth (m)         Re(u)         Im(u)         Re(w)         Im(w)
     1.000 -0.251768E-12  0.486382E-11   0.00000       0.00000    
     2.000 -0.101090E-11  0.194361E-10   0.00000       0.00000    
     3.000 -0.152280E-11  0.290955E-10   0.00000       0.00000    
     4.000 -0.206418E-11  0.387065E-10   0.00000       0.00000    
     5.000 -0.263310E-11  0.482342E-10   0.00000       0.00000    
     6.000 -0.322316E-11  0.576656E-10   0.00000       0.00000    
     7.000 -0.386718E-11  0.669810E-10   0.00000       0.00000    
     8.000 -0.455113E-11  0.761611E-10   0.00000       0.00000    
     9.000 -0.527256E-11  0.851852E-10   0.00000       0.00000    
    10.000 -0.605988E-11  0.940531E-10   0.00000       0.00000    
    11.000 -0.690396E-11  0.102724E-09   0.00000       0.00000    
    12.000 -0.780341E-11  0.111200E-09   0.00000       0.00000    
    13.000 -0.877274E-11  0.119470E-09   0.00000       0.00000    
    14.000 -0.980763E-11  0.127507E-09   0.00000       0.00000    
    15.000 -0.109067E-10  0.135316E-09   0.00000       0.00000    
    16.000 -0.120773E-10  0.142878E-09   0.00000       0.00000    
    17.000 -0.133154E-10  0.150177E-09   0.00000       0.00000    
    18.000 -0.146246E-10  0.157222E-09   0.00000       0.00000    
    19.000 -0.159979E-10  0.163996E-09   0.00000       0.00000    
    20.000 -0.174340E-10  0.170490E-09   0.00000       0.00000    
    21.000 -0.189384E-10  0.176712E-09   0.00000       0.00000    
    22.000 -0.204938E-10  0.182650E-09   0.00000       0.00000    
    23.000 -0.221053E-10  0.188303E-09   0.00000       0.00000    
    24.000 -0.237708E-10  0.193682E-09   0.00000       0.00000    
    25.000 -0.254686E-10  0.198776E-09   0.00000       0.00000    
    26.000 -0.272085E-10  0.203590E-09   0.00000       0.00000    
    27.000 -0.289857E-10  0.208136E-09   0.00000       0.00000    
    28.000 -0.307701E-10  0.212408E-09   0.00000       0.00000    
    29.000 -0.325773E-10  0.216414E-09   0.00000       0.00000    
    30.000 -0.343994E-10  0.220180E-09   0.00000       0.00000    
    31.000 -0.362090E-10  0.223683E-09   0.00000       0.00000    
    32.000 -0.380058E-10  0.226948E-09   0.00000       0.00000    
    33.000 -0.397875E-10  0.229992E-09   0.00000       0.00000    
    34.000 -0.415391E-10  0.232819E-09   0.00000       0.00000    
    35.000 -0.432328E-10  0.235431E-09   0.00000       0.00000    
    36.000 -0.448992E-10  0.237856E-09   0.00000       0.00000    
    37.000 -0.464991E-10  0.240091E-09   0.00000       0.00000    
    38.000 -0.480316E-10  0.242169E-09   0.00000       0.00000    
    39.000 -0.494845E-10  0.244076E-09   0.00000       0.00000    
    40.000 -0.508517E-10  0.245852E-09   0.00000       0.00000    
    41.000 -0.521062E-10  0.247486E-09   0.00000       0.00000    
    42.000 -0.532909E-10  0.249028E-09   0.00000       0.00000    
    43.000 -0.543301E-10  0.250443E-09   0.00000       0.00000    
    44.000 -0.552402E-10  0.251781E-09   0.00000       0.00000    
    45.000 -0.560449E-10  0.253138E-09   0.00000       0.00000    
    46.000 -0.563070E-10  0.254364E-09   0.00000       0.00000    
    47.000 -0.563479E-10  0.255651E-09   0.00000       0.00000    
    48.000 -0.554778E-10  0.256016E-09   0.00000       0.00000    
    49.000 -0.534278E-10  0.261023E-09   0.00000       0.00000    
    50.000 -0.580626E-10  0.258431E-09   0.00000       0.00000    
    51.000 -0.606498E-10  0.258052E-09   0.00000       0.00000    
    52.000 -0.580150E-10  0.259303E-09   0.00000       0.00000    
    53.000 -0.581041E-10  0.261330E-09   0.00000       0.00000    
    54.000 -0.572607E-10  0.262150E-09   0.00000       0.00000    
    55.000 -0.563729E-10  0.263252E-09   0.00000       0.00000    
    56.000 -0.555090E-10  0.264379E-09   0.00000       0.00000    
    57.000 -0.545548E-10  0.265378E-09   0.00000       0.00000    
    58.000 -0.534734E-10  0.266433E-09   0.00000       0.00000    
    59.000 -0.522959E-10  0.267470E-09   0.00000       0.00000    
    60.000 -0.509622E-10  0.268540E-09   0.00000       0.00000    
    61.000 -0.494908E-10  0.269609E-09   0.00000       0.00000    
    62.000 -0.479441E-10  0.270670E-09   0.00000       0.00000    
    63.000 -0.462744E-10  0.271741E-09   0.00000       0.00000    
    64.000 -0.445300E-10  0.272812E-09   0.00000       0.00000    
    65.000 -0.427134E-10  0.273870E-09   0.00000       0.00000    
    66.000 -0.408116E-10  0.274903E-09   0.00000       0.00000    
    67.000 -0.388695E-10  0.275916E-09   0.00000       0.00000    
    68.000 -0.368822E-10  0.276891E-09   0.00000       0.00000    
    69.000 -0.348564E-10  0.277808E-09   0.00000       0.00000    
    70.000 -0.328211E-10  0.278668E-09   0.00000       0.00000    
    71.000 -0.307900E-10  0.279470E-09   0.00000       0.00000    
    72.000 -0.287556E-10  0.280181E-09   0.00000       0.00000    
    73.000 -0.267524E-10  0.280792E-09   0.00000       0.00000    
    74.000 -0.247889E-10  0.281301E-09   0.00000       0.00000    
    75.000 -0.228729E-10  0.281679E-09   0.00000       0.00000    
    76.000 -0.210258E-10  0.281933E-09   0.00000       0.00000    
    77.000 -0.192584E-10  0.282036E-09   0.00000       0.00000    
    78.000 -0.175784E-10  0.281963E-09   0.00000       0.00000    
    79.000 -0.160051E-10  0.281719E-09   0.00000       0.00000    
    80.000 -0.145505E-10  0.281283E-09   0.00000       0.00000    
    81.000 -0.132152E-10  0.280646E-09   0.00000       0.00000    
    82.000 -0.120241E-10  0.279785E-09   0.00000       0.00000    
    83.000 -0.109763E-10  0.278693E-09   0.00000       0.00000    
    84.000 -0.100814E-10  0.277365E-09   0.00000       0.00000    
    85.000 -0.935313E-11  0.275782E-09   0.00000       0.00000    
    86.000 -0.878372E-11  0.273936E-09   0.00000       0.00000    
    87.000 -0.840347E-11  0.271821E-09   0.00000       0.00000    
    88.000 -0.819553E-11  0.269416E-09   0.00000       0.00000    
    89.000 -0.816501E-11  0.266724E-09   0.00000       0.00000    
    90.000 -0.832040E-11  0.263742E-09   0.00000       0.00000    
    91.000 -0.866909E-11  0.260463E-09   0.00000       0.00000    
    92.000 -0.919180E-11  0.256866E-09   0.00000       0.00000    
    93.000 -0.989941E-11  0.252968E-09   0.00000       0.00000    
    94.000 -0.107941E-10  0.248768E-09   0.00000       0.00000    
    95.000 -0.118483E-10  0.244239E-09   0.00000       0.00000    
    96.000 -0.130798E-10  0.239415E-09   0.00000       0.00000    
    97.000 -0.144791E-10  0.234282E-09   0.00000       0.00000    
    98.000 -0.160156E-10  0.228836E-09   0.00000       0.00000    
    99.000 -0.177031E-10  0.223091E-09   0.00000       0.00000    
   100.000 -0.386828E-10  0.269234E-09  0.644247E-10 -0.266517E-10
   101.000 -0.365851E-10  0.273646E-09  0.612618E-10 -0.302941E-10
   102.000 -0.342177E-10  0.273988E-09  0.573173E-10 -0.334371E-10
   103.000 -0.319708E-10  0.269815E-09  0.529776E-10 -0.359945E-10
   104.000 -0.302187E-10  0.261089E-09  0.486577E-10 -0.379206E-10
   105.000 -0.292865E-10  0.248176E-09  0.447646E-10 -0.392122E-10
   106.000 -0.294192E-10  0.231818E-09  0.416614E-10 -0.399074E-10
   107.000 -0.307681E-10  0.213061E-09  0.396320E-10 -0.400799E-10
   108.000 -0.333765E-10  0.193162E-09  0.388575E-10 -0.398316E-10
   109.000 -0.371814E-10  0.173478E-09  0.393997E-10 -0.392814E-10
   110.000 -0.420249E-10  0.155345E-09  0.411959E-10 -0.385557E-10
   111.000 -0.476690E-10  0.139956E-09  0.440641E-10 -0.377763E-10
   112.000 -0.538220E-10  0.128263E-09  0.477188E-10 -0.370503E-10
   113.000 -0.601658E-10  0.120889E-09  0.517978E-10 -0.364612E-10
   114.000 -0.663833E-10  0.118075E-09  0.558933E-10 -0.360628E-10
   115.000 -0.721871E-10  0.119661E-09  0.595882E-10 -0.358760E-10
   116.000 -0.773408E-10  0.125105E-09  0.624930E-10 -0.358881E-10
   117.000 -0.816751E-10  0.133531E-09  0.642802E-10 -0.360547E-10
   118.000 -0.851009E-10  0.143807E-09  0.647129E-10 -0.363060E-10
   119.000 -0.876074E-10  0.154655E-09  0.636655E-10 -0.365521E-10
   120.000 -0.892572E-10  0.164755E-09  0.611345E-10 -0.366930E-10
   121.000 -0.901778E-10  0.172871E-09  0.572376E-10 -0.366267E-10
   122.000 -0.905413E-10  0.177960E-09  0.522051E-10 -0.362582E-10
   123.000 -0.905471E-10  0.179260E-09  0.463563E-10 -0.355077E-10
   124.000 -0.903989E-10  0.176362E-09  0.400739E-10 -0.343171E-10
   125.000 -0.902871E-10  0.169243E-09  0.337693E-10 -0.326542E-10
   126.000 -0.903737E-10  0.158266E-09  0.278451E-10 -0.305148E-10
   127.000 -0.907747E-10  0.144148E-09  0.226622E-10 -0.279233E-10
   128.000 -0.915569E-10  0.127895E-09  0.185083E-10 -0.249295E-10
   129.000 -0.927349E-10  0.110708E-09  0.155716E-10 -0.216049E-10
   130.000 -0.942711E-10  0.938827E-10  0.139277E-10 -0.180368E-10
   131.000 -0.960895E-10  0.786855E-10  0.135324E-10 -0.143218E-10
   132.000 -0.980791E-10  0.662490E-10  0.142276E-10 -0.105576E-10
   133.000 -0.100114E-09  0.574655E-10  0.157576E-10 -0.683830E-11
   134.000 -0.102060E-09  0.529133E-10  0.177910E-10 -0.324655E-11
   135.000 -0.103791E-09  0.528032E-10  0.199538E-10  0.151729E-12
   136.000 -0.105201E-09  0.569647E-10  0.218611E-10  0.330881E-11
   137.000 -0.106205E-09  0.648587E-10  0.231545E-10  0.619890E-11
   138.000 -0.106751E-09  0.756316E-10  0.235331E-10  0.881759E-11
   139.000 -0.106813E-09  0.881870E-10  0.227815E-10  0.111797E-10
   140.000 -0.106397E-09  0.101289E-09  0.207894E-10  0.133173E-10
   141.000 -0.105526E-09  0.113668E-09  0.175615E-10  0.152752E-10
   142.000 -0.104243E-09  0.124138E-09  0.132186E-10  0.171061E-10
   143.000 -0.102596E-09  0.131699E-09  0.798499E-11  0.188652E-10
   144.000 -0.100639E-09  0.135622E-09  0.217133E-11  0.206064E-10
   145.000 -0.984176E-10  0.135519E-09 -0.385343E-11  0.223761E-10
   146.000 -0.959742E-10  0.131368E-09 -0.969537E-11  0.242101E-10
   147.000 -0.933397E-10  0.123519E-09 -0.149676E-10  0.261313E-10
   148.000 -0.905367E-10  0.112657E-09 -0.193257E-10  0.281470E-10
   149.000 -0.875838E-10  0.997379E-10 -0.224968E-10  0.302479E-10
   150.000 -0.844945E-10  0.859075E-10 -0.243027E-10  0.324103E-10
   151.000 -0.812862E-10  0.723887E-10 -0.246750E-10  0.345966E-10
   152.000 -0.779809E-10  0.603811E-10 -0.236601E-10  0.367582E-10
   153.000 -0.746098E-10  0.509438E-10 -0.214142E-10  0.388385E-10
   154.000 -0.712122E-10  0.449092E-10 -0.181884E-10  0.407764E-10
   155.000 -0.678385E-10  0.428042E-10 -0.143059E-10  0.425111E-10
   156.000 -0.645431E-10  0.448032E-10 -0.101331E-10  0.439853E-10
   157.000 -0.613823E-10  0.507170E-10 -0.604618E-11  0.451491E-10
   158.000 -0.584083E-10  0.600051E-10 -0.239775E-11  0.459625E-10
   159.000 -0.556590E-10  0.718277E-10  0.514227E-12  0.463987E-10
   160.000 -0.531551E-10  0.851222E-10  0.247222E-11  0.464456E-10
   161.000 -0.508942E-10  0.986919E-10  0.335876E-11  0.461060E-10
   162.000 -0.488468E-10  0.111320E-09  0.316537E-11  0.453979E-10
   163.000 -0.469557E-10  0.121870E-09  0.199359E-11  0.443538E-10
   164.000 -0.451391E-10  0.129393E-09  0.432996E-13  0.430178E-10
   165.000 -0.432990E-10  0.133204E-09 -0.240355E-11  0.414440E-10
   166.000 -0.413274E-10  0.132945E-09 -0.501029E-11  0.396926E-10
   167.000 -0.391170E-10  0.128615E-09 -0.741637E-11  0.378265E-10
   168.000 -0.365761E-10  0.120565E-09 -0.926887E-11  0.359070E-10
   169.000 -0.336383E-10  0.109468E-09 -0.102556E-10  0.339907E-10
   170.000 -0.302727E-10  0.962540E-10 -0.101330E-10  0.321246E-10
   171.000 -0.264947E-10  0.820264E-10 -0.874782E-11  0.303456E-10
   172.000 -0.223645E-10  0.679660E-10 -0.605178E-11  0.286753E-10
   173.000 -0.179917E-10  0.552164E-10 -0.210648E-11  0.271207E-10
   174.000 -0.135259E-10  0.447911E-10  0.292276E-11  0.256733E-10
   175.000 -0.914690E-11  0.374765E-10  0.877994E-11  0.243099E-10
   176.000 -0.505241E-11  0.337657E-10  0.151416E-10  0.229951E-10
   177.000 -0.143708E-11  0.338142E-10  0.216433E-10  0.216842E-10
   178.000  0.152170E-11  0.374270E-10  0.279123E-10  0.203271E-10
   179.000  0.368327E-11  0.440785E-10  0.336003E-10  0.188729E-10
   180.000  0.496132E-11  0.529612E-10  0.384111E-10  0.172743E-10
   181.000  0.533239E-11  0.630536E-10  0.421276E-10  0.154934E-10
   182.000  0.484479E-11  0.732220E-10  0.446294E-10  0.135049E-10
   183.000  0.361455E-11  0.823135E-10  0.459004E-10  0.112995E-10
   184.000  0.182175E-11  0.892636E-10  0.460312E-10  0.888744E-11
   185.000 -0.302014E-12  0.931911E-10  0.452079E-10  0.629734E-11
   186.000 -0.249692E-11  0.934737E-10  0.436947E-10  0.357753E-11
   187.000 -0.449301E-11  0.898063E-10  0.418094E-10  0.792567E-12
   188.000 -0.603627E-11  0.822261E-10  0.398938E-10 -0.198048E-11
   189.000 -0.691357E-11  0.711083E-10  0.382819E-10 -0.465615E-11
   190.000 -0.697220E-11  0.571301E-10  0.372704E-10 -0.714726E-11
   191.000 -0.613823E-11  0.412138E-10  0.370911E-10 -0.937101E-11
   192.000 -0.442594E-11  0.244393E-10  0.378899E-10 -0.112547E-10
   193.000 -0.193788E-11  0.795194E-11  0.397139E-10 -0.127423E-10
   194.000  0.113921E-11 -0.714348E-11  0.425068E-10 -0.137980E-10
   195.000  0.454951E-11 -0.198769E-10  0.461134E-10 -0.144102E-10
   196.000  0.799221E-11 -0.294997E-10  0.502935E-10 -0.145924E-10
   197.000  0.111447E-10 -0.355504E-10  0.547455E-10 -0.143818E-10
   198.000  0.136958E-10 -0.378939E-10  0.591285E-10 -0.138384E-10
   199.000  0.768739E-11 -0.183650E-10  0.315486E-10 -0.651873E-11
