
         1   # Prop. dir.: 1 forw; 2 backw
         2   # Sector #
     2.000   # Range in km 
 Depth (m)         Re(u)         Im(u)         Re(w)         Im(w)
     1.000  0.266170E-11 -0.234645E-11 -0.255779E-11 -0.254612E-11
     2.000  0.554476E-11 -0.491416E-11 -0.478977E-11 -0.472179E-11
     3.000  0.556700E-11 -0.494574E-11 -0.441536E-11 -0.430884E-11
     4.000  0.537700E-11 -0.477174E-11 -0.400767E-11 -0.387130E-11
     5.000  0.497028E-11 -0.438556E-11 -0.358348E-11 -0.342782E-11
     6.000  0.435133E-11 -0.379007E-11 -0.316025E-11 -0.299695E-11
     7.000  0.353342E-11 -0.299752E-11 -0.275538E-11 -0.259647E-11
     8.000  0.253810E-11 -0.202885E-11 -0.238541E-11 -0.224261E-11
     9.000  0.139429E-11 -0.912820E-12 -0.206535E-11 -0.194941E-11
    10.000  0.137209E-12  0.315335E-12 -0.180796E-11 -0.172815E-11
    11.000 -0.119317E-11  0.161549E-11 -0.162323E-11 -0.158687E-11
    12.000 -0.255373E-11  0.294436E-11 -0.151792E-11 -0.153009E-11
    13.000 -0.389995E-11  0.425742E-11 -0.149528E-11 -0.155856E-11
    14.000 -0.518782E-11  0.551093E-11 -0.155491E-11 -0.166931E-11
    15.000 -0.637562E-11  0.666368E-11 -0.169277E-11 -0.185570E-11
    16.000 -0.742569E-11  0.767890E-11 -0.190133E-11 -0.210780E-11
    17.000 -0.830587E-11  0.852578E-11 -0.216995E-11 -0.241271E-11
    18.000 -0.899107E-11  0.918078E-11 -0.248528E-11 -0.275520E-11
    19.000 -0.946404E-11  0.962861E-11 -0.283187E-11 -0.311829E-11
    20.000 -0.971631E-11  0.986283E-11 -0.319281E-11 -0.348399E-11
    21.000 -0.974839E-11  0.988614E-11 -0.355050E-11 -0.383404E-11
    22.000 -0.956984E-11  0.971005E-11 -0.388734E-11 -0.415073E-11
    23.000 -0.919880E-11  0.935442E-11 -0.418657E-11 -0.441756E-11
    24.000 -0.866120E-11  0.884650E-11 -0.443290E-11 -0.462002E-11
    25.000 -0.798985E-11  0.821980E-11 -0.461322E-11 -0.474616E-11
    26.000 -0.722278E-11  0.751234E-11 -0.471713E-11 -0.478712E-11
    27.000 -0.640187E-11  0.676515E-11 -0.473742E-11 -0.473745E-11
    28.000 -0.557096E-11  0.602042E-11 -0.467035E-11 -0.459543E-11
    29.000 -0.477400E-11  0.531955E-11 -0.451577E-11 -0.436307E-11
    30.000 -0.405335E-11  0.470142E-11 -0.427714E-11 -0.404607E-11
    31.000 -0.344775E-11  0.420071E-11 -0.396142E-11 -0.365357E-11
    32.000 -0.299088E-11  0.384635E-11 -0.357868E-11 -0.319782E-11
    33.000 -0.270981E-11  0.366029E-11 -0.314170E-11 -0.269359E-11
    34.000 -0.262394E-11  0.365666E-11 -0.266540E-11 -0.215763E-11
    35.000 -0.274408E-11  0.384111E-11 -0.216621E-11 -0.160794E-11
    36.000 -0.307202E-11  0.421065E-11 -0.166130E-11 -0.106303E-11
    37.000 -0.360046E-11  0.475379E-11 -0.116791E-11 -0.541141E-12
    38.000 -0.431326E-11  0.545119E-11 -0.702540E-12 -0.595201E-13
    39.000 -0.518614E-11  0.627642E-11 -0.280284E-12  0.366341E-12
    40.000 -0.618762E-11  0.719728E-11  0.858586E-13  0.723324E-12
    41.000 -0.728037E-11  0.817712E-11  0.385509E-12  0.100124E-11
    42.000 -0.842286E-11  0.917658E-11  0.611363E-12  0.119322E-11
    43.000 -0.957089E-11  0.101552E-10  0.759486E-12  0.129605E-11
    44.000 -0.106796E-10  0.110734E-10  0.829486E-12  0.131027E-11
    45.000 -0.117053E-10  0.118938E-10  0.824490E-12  0.124014E-11
    46.000 -0.126074E-10  0.125833E-10  0.751024E-12  0.109346E-11
    47.000 -0.133499E-10  0.131144E-10  0.618677E-12  0.881281E-12
    48.000 -0.139030E-10  0.134658E-10  0.439689E-12  0.617393E-12
    49.000 -0.142445E-10  0.136241E-10  0.228378E-12  0.317755E-12
    50.000 -0.115847E-10  0.798954E-11 -0.144490E-11  0.234870E-11
    51.000 -0.142445E-10  0.136241E-10 -0.228374E-12 -0.317755E-12
    52.000 -0.139030E-10  0.134658E-10 -0.439684E-12 -0.617397E-12
    53.000 -0.133499E-10  0.131144E-10 -0.618674E-12 -0.881284E-12
    54.000 -0.126074E-10  0.125833E-10 -0.751021E-12 -0.109346E-11
    55.000 -0.117054E-10  0.118938E-10 -0.824487E-12 -0.124014E-11
    56.000 -0.106796E-10  0.110734E-10 -0.829483E-12 -0.131027E-11
    57.000 -0.957089E-11  0.101552E-10 -0.759482E-12 -0.129606E-11
    58.000 -0.842287E-11  0.917657E-11 -0.611360E-12 -0.119322E-11
    59.000 -0.728037E-11  0.817712E-11 -0.385507E-12 -0.100124E-11
    60.000 -0.618762E-11  0.719728E-11 -0.858579E-13 -0.723328E-12
    61.000 -0.518613E-11  0.627642E-11  0.280285E-12 -0.366345E-12
    62.000 -0.431326E-11  0.545119E-11  0.702539E-12  0.595211E-13
    63.000 -0.360046E-11  0.475380E-11  0.116791E-11  0.541140E-12
    64.000 -0.307203E-11  0.421065E-11  0.166130E-11  0.106303E-11
    65.000 -0.274408E-11  0.384112E-11  0.216620E-11  0.160794E-11
    66.000 -0.262394E-11  0.365666E-11  0.266540E-11  0.215763E-11
    67.000 -0.270982E-11  0.366030E-11  0.314170E-11  0.269358E-11
    68.000 -0.299088E-11  0.384635E-11  0.357868E-11  0.319782E-11
    69.000 -0.344775E-11  0.420071E-11  0.396142E-11  0.365357E-11
    70.000 -0.405335E-11  0.470142E-11  0.427714E-11  0.404606E-11
    71.000 -0.477400E-11  0.531955E-11  0.451577E-11  0.436306E-11
    72.000 -0.557096E-11  0.602043E-11  0.467035E-11  0.459543E-11
    73.000 -0.640187E-11  0.676515E-11  0.473742E-11  0.473745E-11
    74.000 -0.722279E-11  0.751234E-11  0.471713E-11  0.478712E-11
    75.000 -0.798986E-11  0.821980E-11  0.461322E-11  0.474616E-11
    76.000 -0.866120E-11  0.884651E-11  0.443290E-11  0.462002E-11
    77.000 -0.919880E-11  0.935441E-11  0.418658E-11  0.441755E-11
    78.000 -0.956984E-11  0.971004E-11  0.388734E-11  0.415072E-11
    79.000 -0.974839E-11  0.988614E-11  0.355051E-11  0.383404E-11
    80.000 -0.971631E-11  0.986283E-11  0.319282E-11  0.348398E-11
    81.000 -0.946404E-11  0.962861E-11  0.283187E-11  0.311829E-11
    82.000 -0.899107E-11  0.918076E-11  0.248528E-11  0.275520E-11
    83.000 -0.830587E-11  0.852577E-11  0.216995E-11  0.241271E-11
    84.000 -0.742568E-11  0.767890E-11  0.190133E-11  0.210779E-11
    85.000 -0.637563E-11  0.666368E-11  0.169277E-11  0.185570E-11
    86.000 -0.518782E-11  0.551092E-11  0.155491E-11  0.166931E-11
    87.000 -0.389995E-11  0.425743E-11  0.149528E-11  0.155857E-11
    88.000 -0.255373E-11  0.294436E-11  0.151792E-11  0.153009E-11
    89.000 -0.119318E-11  0.161549E-11  0.162323E-11  0.158687E-11
    90.000  0.137210E-12  0.315338E-12  0.180796E-11  0.172815E-11
    91.000  0.139429E-11 -0.912817E-12  0.206535E-11  0.194941E-11
    92.000  0.253809E-11 -0.202885E-11  0.238541E-11  0.224261E-11
    93.000  0.353342E-11 -0.299751E-11  0.275537E-11  0.259647E-11
    94.000  0.435133E-11 -0.379006E-11  0.316025E-11  0.299695E-11
    95.000  0.497028E-11 -0.438555E-11  0.358348E-11  0.342782E-11
    96.000  0.537700E-11 -0.477173E-11  0.400767E-11  0.387131E-11
    97.000  0.556700E-11 -0.494573E-11  0.441536E-11  0.430884E-11
    98.000  0.554475E-11 -0.491415E-11  0.478977E-11  0.472180E-11
    99.000  0.266169E-11 -0.234645E-11  0.255779E-11  0.254613E-11
